timestamp,TP9_uV,AF7_uV,AF8_uV,TP10_uV
1772265421142,-11.613274,77.461887,236.185807,-30.234809
1772265421146,-0.496148,202.465870,321.769967,-40.710507
1772265421150,-19.974393,200.253895,299.882286,-41.351543
1772265421154,-37.415931,254.814859,329.055049,-16.253827
1772265421158,-19.780437,301.669743,357.552716,24.324836
1772265421162,5.719739,159.333217,235.672520,23.263401
1772265421166,15.150537,-86.290971,26.715485,-27.310222
1772265421170,5.668521,-222.697494,-99.098398,-62.967295
1772265421173,-18.201501,-240.008074,-127.974396,-44.457277
1772265421177,-39.159544,-330.837025,-219.494561,-15.159576
1772265421181,-39.861062,-521.167354,-395.609897,-28.837975
1772265421103,-3.423406,687.314753,799.114316,-7.552389
1772265421107,-9.316656,657.749162,777.704655,32.101974
1772265421111,8.874423,694.396667,794.652063,34.010161
1772265421115,23.902473,682.632281,767.608134,10.309431
1772265421119,8.065041,531.715526,640.712304,-6.988511
1772265421123,-19.051647,346.499837,499.574994,-19.031186
1772265421127,-22.214436,222.419843,401.175233,-24.792964
1772265421131,-6.218954,119.711355,303.689853,-20.792734
1772265421134,-3.319000,-23.243168,172.005681,-13.162662
1772265421138,-15.986990,-75.848670,120.335346,-16.164507
1772265421142,-11.613274,77.461887,236.185807,-30.234809
1772265421146,-0.496148,202.465870,321.769967,-40.710507
1772265421150,-19.974393,200.253895,299.882286,-41.351543
1772265421154,-37.415931,254.814859,329.055049,-16.253827
1772265421158,-19.780437,301.669743,357.552716,24.324836
1772265421162,5.719739,159.333217,235.672520,23.263401
1772265421166,15.150537,-86.290971,26.715485,-27.310222
1772265421170,5.668521,-222.697494,-99.098398,-62.967295
1772265421173,-18.201501,-240.008074,-127.974396,-44.457277
1772265421177,-39.159544,-330.837025,-219.494561,-15.159576
1772265421181,-39.861062,-521.167354,-395.609897,-28.837975
1772265421185,-60.729730,-541.477169,-393.401239,-10.439596
1772265421189,-50.631060,-395.465207,-285.874880,13.992767
1772265421193,-36.928446,-378.539052,-322.410884,-6.246944
1772265421197,-60.410839,-432.470438,-422.969073,-48.439646
1772265421201,-86.621374,-456.774266,-458.337423,-80.963118
1772265421205,-100.225798,-498.581409,-470.792750,-116.726625
1772265421209,-130.230910,-629.738645,-571.297942,-156.414470
1772265421213,-146.184782,-757.520699,-712.180838,-163.487116
1772265421216,-125.706095,-827.973142,-814.820421,-143.048572
1772265421220,-106.826650,-914.658747,-905.221650,-127.101464
1772265421224,-116.220608,-983.793688,-995.986344,-130.274720
1772265421228,-142.282649,-974.484908,-1040.136803,-148.741091
1772265421232,-164.015175,-932.661742,-1016.010446,-150.567450
1772265421236,-156.386917,-901.407065,-988.588872,-131.725917
1772265421240,-126.568631,-865.214132,-966.689432,-131.209210
1772265421244,-135.632434,-807.975918,-916.114752,-133.375238
1772265421248,-124.052078,-820.388029,-934.416951,-131.825288
1772265421252,-97.522977,-811.712600,-938.873084,-107.615137
1772265421255,-88.493116,-755.134676,-890.500016,-112.467331
1772265421259,-90.423093,-684.703963,-822.314836,-124.842177
1772265421263,-78.654985,-652.823912,-791.699063,-91.358875
1772265421267,-53.067952,-667.856773,-799.686056,-37.967553
1772265421271,-18.352064,-683.429999,-801.320703,-14.749603
1772265421275,2.166538,-646.030680,-757.762670,-18.553269
1772265421279,2.815565,-554.955865,-680.756561,-13.249951
1772265421283,10.390230,-481.212825,-624.114749,17.925335
1772265421287,26.305089,-476.354795,-622.554102,51.529432
1772265421291,52.777408,-463.028235,-630.769824,38.876971
1772265421295,56.708526,-355.052312,-575.500218,47.309539
1772265421298,79.492883,-254.954199,-511.790690,93.410413
1772265421302,110.854676,-149.817129,-421.217701,126.822040
1772265421306,125.963893,-104.393926,-369.214682,134.611003
1772265421310,139.892449,-170.218179,-405.668088,143.151163
1772265421314,159.560165,-267.124031,-443.768181,135.738807
1772265421318,153.132480,-301.535284,-435.812821,110.323679
1772265421322,125.773475,-262.039749,-421.641397,114.210795
1772265421326,118.813831,-264.122628,-420.863616,157.552507
1772265421330,125.474957,-329.096167,-409.259881,173.772772
1772265421334,116.521149,-326.599701,-367.405217,136.125880
1772265421338,111.433679,-261.797383,-319.201776,116.351894
1772265421341,125.011831,-250.498664,-301.334034,136.449324
1772265421345,130.202497,-300.098110,-310.940677,142.373038
1772265421349,120.468238,-310.070789,-307.029437,125.484370
1772265421353,114.409613,-229.324845,-266.457150,113.433720
1772265421357,122.737822,-135.583697,-217.854400,121.843460
1772265421361,138.814965,-125.369130,-203.736193,138.532116
1772265421365,142.728831,-161.109973,-220.182544,140.305544
1772265421369,130.801246,-114.765347,-217.646569,130.604305
1772265421373,112.247162,9.862178,-174.769539,119.760299
1772265421377,103.056148,123.652975,-114.070381,103.462583
1772265421380,118.357063,219.317763,-44.195895,82.144454
1772265421384,92.420379,273.935753,8.837190,72.853545
1772265421388,83.383891,162.904713,-17.354886,73.652018
1772265421392,86.799183,-48.794745,-82.828851,73.948178
1772265421396,74.791722,-135.382103,-97.563833,63.781754
1772265421400,50.057152,-119.950183,-80.594314,60.438763
1772265421404,35.464817,-97.805027,-68.040738,58.516715
1772265421408,31.167460,-82.449130,-57.658601,30.854240
1772265421412,33.807013,-62.063541,-40.492462,-1.684736
1772265421416,30.014029,-41.133989,-20.394296,-7.874707
1772265421420,16.137716,-31.236403,-7.838061,-10.372575
1772265421423,11.616608,-30.776013,-4.162529,-14.890395
1772265421427,14.913394,-26.105065,0.750581,2.527115
1772265421431,17.568651,-9.600644,15.136054,36.911741
1772265421435,17.121993,10.753303,34.315022,49.349110
1772265421439,15.909345,21.868165,46.497810,25.285238
1772265421443,28.624818,22.066901,48.261098,8.439197
1772265421447,41.487760,23.186190,49.681858,12.344307
1772265421451,14.423836,35.857065,61.633373,-4.883083
1772265421455,-6.058101,70.346535,87.168916,-41.065348
1772265421459,-18.960902,47.816005,78.867285,-30.375689
1772265421462,-21.891509,40.157330,77.185393,5.171648
1772265421466,-20.502927,72.888400,96.288667,12.208460
1772265421470,-7.680160,108.155463,119.179870,2.535953
1772265421474,9.140676,100.487032,122.399115,-1.154324
1772265421478,10.439413,68.557198,110.954677,-12.207623
1772265421482,9.361363,71.996490,111.781478,-22.058116
1772265421486,15.713586,121.313428,133.764474,-3.294985
1772265421490,24.927436,154.765228,154.627385,29.814447
1772265421494,35.867496,127.850733,149.193267,42.091057
1772265421498,39.573550,111.070080,138.472948,36.812520
1772265421502,39.376951,200.265683,180.200014,37.691177
1772265421505,45.551810,300.512325,237.612536,48.944745
1772265421509,42.895202,300.870265,257.498635,45.591801
1772265421513,19.288144,379.661999,376.151736,23.718653
1772265421517,1.808855,683.328507,677.359217,14.704041
1772265421521,13.165648,1017.709373,972.236904,16.930152
1772265421525,0.476418,1001.103498,977.731702,4.984951
1772265421529,-1.490684,1089.831569,1079.848432,-7.793969
1772265421533,13.677144,1288.525850,1257.188736,8.872079
1772265421537,34.594171,1353.998819,1315.086731,27.537103
1772265421541,34.192947,1262.831405,1248.299196,19.010137
1772265421545,12.101023,1199.134720,1215.925999,18.755360
1772265421548,-10.352378,1200.806141,1238.162383,31.345985
1772265421552,-8.922698,1205.195189,1249.279390,4.053756
1772265421556,8.290164,1167.357424,1205.567865,-40.489815
1772265421560,11.915326,1135.312197,1158.505451,-32.061675
1772265421564,-1.690631,1146.596805,1159.918026,5.289436
1772265421568,-22.553283,1223.413376,1232.329207,25.714034
1772265421572,-10.130260,1150.663128,1150.454265,32.898235
1772265421576,-9.248740,1289.272502,1267.436836,29.463724
1772265421580,1.004585,1485.119970,1444.404721,6.173593
1772265421584,-7.540979,1421.137219,1399.144253,-16.994960
1772265421587,-18.524589,1128.988464,1134.618897,-12.543099
1772265421591,-7.441752,916.713208,931.381983,9.706927
1772265421595,5.541890,982.318355,1004.987938,22.138432
1772265421599,2.228511,1154.585953,1208.359976,26.815890
1772265421603,-1.839289,808.339292,887.627678,28.661465
1772265421607,8.647218,102.738614,170.126612,11.727706
1772265421611,30.695715,159.136163,205.231663,-16.624274
1772265421615,35.124717,472.976187,517.744123,-20.505825
1772265421619,-9.725727,264.475232,332.224186,-6.948036
1772265421623,-3.439144,488.534181,548.920774,9.373358
1772265421627,14.322932,993.335220,1030.433400,20.889565
1772265421630,13.267988,1043.255354,1072.961395,17.652391
1772265421634,-0.674252,903.328560,950.266924,22.047856
1772265421638,-5.907208,899.597925,962.469167,30.509654
1772265421642,0.911221,996.220023,1050.314344,20.513331
1772265421646,18.001120,949.542355,981.833714,14.820135
1772265421650,39.633202,704.383007,731.189895,34.138962
1772265421654,43.388427,521.380203,564.438851,58.608949
1772265421658,30.759538,638.143433,694.090120,55.330688
1772265421662,22.337248,894.865347,941.270180,24.182217
1772265421666,10.711540,884.847665,912.780641,7.936554
1772265421670,-7.157544,511.434928,537.248600,11.639337
1772265421673,-21.246237,196.434010,236.905758,-4.930075
1772265421677,-30.688211,358.950683,407.183058,-34.774995
1772265421681,-34.251450,799.281898,836.276784,-31.890116
1772265421685,-44.279941,879.909775,903.361218,1.634569
1772265421689,-62.012649,377.575725,404.583763,9.198224
1772265421693,-64.422499,-126.839665,-85.903601,-28.724329
1772265421697,-56.975372,-339.093258,-299.272140,-68.591424
1772265421701,-88.453120,-563.422044,-515.936781,-70.304182
1772265421705,-87.364781,-438.700453,-364.939907,-73.558547
1772265421709,-79.550832,-68.329648,44.663092,-99.644476
1772265421712,-81.831251,-68.409553,40.858700,-114.336358
1772265421716,-100.164304,-308.770794,-231.680803,-101.288616
1772265421720,-111.288016,-647.834621,-589.593861,-97.869310
1772265421724,-108.614225,-998.256504,-951.785511,-103.623599
1772265421728,-115.176768,-1367.168013,-1335.312183,-101.453360
1772265421732,-125.594374,-1622.874871,-1599.667137,-110.184622
1772265421736,-130.741482,-1594.174276,-1575.647757,-129.288306
1772265421740,-147.162387,-1408.977923,-1401.216706,-144.385569
1772265421744,-168.764593,-1321.885385,-1323.630891,-154.955715
1772265421748,-168.362567,-1401.626935,-1397.695450,-157.331842
1772265421752,-141.532581,-1487.122690,-1470.261575,-160.943153
1772265421755,-117.443729,-1398.768945,-1382.382779,-168.359187
1772265421759,-133.739288,-1209.908065,-1200.553414,-151.836016
1772265421763,-127.989115,-1162.551943,-1158.225474,-127.530127
1772265421767,-114.563141,-1224.418869,-1221.105139,-112.250141
1772265421771,-97.377060,-1262.477904,-1255.828072,-121.166623
1772265421775,-80.035377,-1177.123259,-1168.400639,-129.693872
1772265421779,-62.264088,-1037.387193,-1031.078881,-103.754397
1772265421783,-40.264031,-985.621234,-982.872919,-60.459097
1772265421787,-22.533036,-1043.562493,-1041.003202,-35.341019
1772265421791,-16.141348,-1085.309998,-1080.311401,-29.630738
1772265421794,-9.426023,-1011.195413,-1005.442017,-25.243844
1772265421798,3.579323,-881.501068,-878.001653,-14.092125
1772265421802,13.649987,-829.158992,-827.729951,6.662531
1772265421806,14.865398,-877.384660,-875.328296,27.598922
1772265421810,13.951281,-914.066743,-910.494540,25.869637
1772265421814,19.442683,-850.853631,-847.829454,12.399455
1772265421818,32.032088,-740.751195,-739.683219,15.946740
1772265421822,44.652793,-695.127808,-694.986484,24.979247
1772265421826,42.715646,-729.575289,-727.931040,25.273697
1772265421830,29.311843,-747.501768,-746.211021,33.504582
1772265421834,30.038489,-681.656709,-690.914585,55.655566
1772265421837,48.143141,-589.401283,-609.200425,67.730054
1772265421841,58.602809,-518.224259,-538.814491,54.339722
1772265421845,46.232598,-427.430489,-456.405141,37.018025
1772265421849,24.043469,-303.462182,-352.895631,35.476293
1772265421185,-60.729730,-541.477169,-393.401239,-10.439596
1772265421189,-50.631060,-395.465207,-285.874880,13.992767
1772265421193,-36.928446,-378.539052,-322.410884,-6.246944
1772265421197,-60.410839,-432.470438,-422.969073,-48.439646
1772265421201,-86.621374,-456.774266,-458.337423,-80.963118
1772265421205,-100.225798,-498.581409,-470.792750,-116.726625
1772265421209,-130.230910,-629.738645,-571.297942,-156.414470
1772265421213,-146.184782,-757.520699,-712.180838,-163.487116
1772265421216,-125.706095,-827.973142,-814.820421,-143.048572
1772265421220,-106.826650,-914.658747,-905.221650,-127.101464
1772265421224,-116.220608,-983.793688,-995.986344,-130.274720
1772265421228,-142.282649,-974.484908,-1040.136803,-148.741091
1772265421232,-164.015175,-932.661742,-1016.010446,-150.567450
1772265421236,-156.386917,-901.407065,-988.588872,-131.725917
1772265421240,-126.568631,-865.214132,-966.689432,-131.209210
1772265421244,-135.632434,-807.975918,-916.114752,-133.375238
1772265421248,-124.052078,-820.388029,-934.416951,-131.825288
1772265421252,-97.522977,-811.712600,-938.873084,-107.615137
1772265421255,-88.493116,-755.134676,-890.500016,-112.467331
1772265421259,-90.423093,-684.703963,-822.314836,-124.842177
1772265421263,-78.654985,-652.823912,-791.699063,-91.358875
1772265421267,-53.067952,-667.856773,-799.686056,-37.967553
1772265421271,-18.352064,-683.429999,-801.320703,-14.749603
1772265421275,2.166538,-646.030680,-757.762670,-18.553269
1772265421279,2.815565,-554.955865,-680.756561,-13.249951
1772265421283,10.390230,-481.212825,-624.114749,17.925335
1772265421287,26.305089,-476.354795,-622.554102,51.529432
1772265421291,52.777408,-463.028235,-630.769824,38.876971
1772265421295,56.708526,-355.052312,-575.500218,47.309539
1772265421298,79.492883,-254.954199,-511.790690,93.410413
1772265421302,110.854676,-149.817129,-421.217701,126.822040
1772265421306,125.963893,-104.393926,-369.214682,134.611003
1772265421310,139.892449,-170.218179,-405.668088,143.151163
1772265421314,159.560165,-267.124031,-443.768181,135.738807
1772265421318,153.132480,-301.535284,-435.812821,110.323679
1772265421322,125.773475,-262.039749,-421.641397,114.210795
1772265421326,118.813831,-264.122628,-420.863616,157.552507
1772265421330,125.474957,-329.096167,-409.259881,173.772772
1772265421334,116.521149,-326.599701,-367.405217,136.125880
1772265421338,111.433679,-261.797383,-319.201776,116.351894
1772265421341,125.011831,-250.498664,-301.334034,136.449324
1772265421345,130.202497,-300.098110,-310.940677,142.373038
1772265421349,120.468238,-310.070789,-307.029437,125.484370
1772265421353,114.409613,-229.324845,-266.457150,113.433720
1772265421357,122.737822,-135.583697,-217.854400,121.843460
1772265421361,138.814965,-125.369130,-203.736193,138.532116
1772265421365,142.728831,-161.109973,-220.182544,140.305544
1772265421369,130.801246,-114.765347,-217.646569,130.604305
1772265421373,112.247162,9.862178,-174.769539,119.760299
1772265421377,103.056148,123.652975,-114.070381,103.462583
1772265421380,118.357063,219.317763,-44.195895,82.144454
1772265421384,92.420379,273.935753,8.837190,72.853545
1772265421388,83.383891,162.904713,-17.354886,73.652018
1772265421392,86.799183,-48.794745,-82.828851,73.948178
1772265421396,74.791722,-135.382103,-97.563833,63.781754
1772265421400,50.057152,-119.950183,-80.594314,60.438763
1772265421404,35.464817,-97.805027,-68.040738,58.516715
1772265421408,31.167460,-82.449130,-57.658601,30.854240
1772265421412,33.807013,-62.063541,-40.492462,-1.684736
1772265421416,30.014029,-41.133989,-20.394296,-7.874707
1772265421420,16.137716,-31.236403,-7.838061,-10.372575
1772265421423,11.616608,-30.776013,-4.162529,-14.890395
1772265421427,14.913394,-26.105065,0.750581,2.527115
1772265421431,17.568651,-9.600644,15.136054,36.911741
1772265421435,17.121993,10.753303,34.315022,49.349110
1772265421439,15.909345,21.868165,46.497810,25.285238
1772265421443,28.624818,22.066901,48.261098,8.439197
1772265421447,41.487760,23.186190,49.681858,12.344307
1772265421451,14.423836,35.857065,61.633373,-4.883083
1772265421455,-6.058101,70.346535,87.168916,-41.065348
1772265421459,-18.960902,47.816005,78.867285,-30.375689
1772265421462,-21.891509,40.157330,77.185393,5.171648
1772265421466,-20.502927,72.888400,96.288667,12.208460
1772265421470,-7.680160,108.155463,119.179870,2.535953
1772265421474,9.140676,100.487032,122.399115,-1.154324
1772265421478,10.439413,68.557198,110.954677,-12.207623
1772265421482,9.361363,71.996490,111.781478,-22.058116
1772265421486,15.713586,121.313428,133.764474,-3.294985
1772265421490,24.927436,154.765228,154.627385,29.814447
1772265421494,35.867496,127.850733,149.193267,42.091057
1772265421498,39.573550,111.070080,138.472948,36.812520
1772265421502,39.376951,200.265683,180.200014,37.691177
1772265421505,45.551810,300.512325,237.612536,48.944745
1772265421509,42.895202,300.870265,257.498635,45.591801
1772265421513,19.288144,379.661999,376.151736,23.718653
1772265421517,1.808855,683.328507,677.359217,14.704041
1772265421521,13.165648,1017.709373,972.236904,16.930152
1772265421525,0.476418,1001.103498,977.731702,4.984951
1772265421529,-1.490684,1089.831569,1079.848432,-7.793969
1772265421533,13.677144,1288.525850,1257.188736,8.872079
1772265421537,34.594171,1353.998819,1315.086731,27.537103
1772265421541,34.192947,1262.831405,1248.299196,19.010137
1772265421545,12.101023,1199.134720,1215.925999,18.755360
1772265421548,-10.352378,1200.806141,1238.162383,31.345985
1772265421552,-8.922698,1205.195189,1249.279390,4.053756
1772265421556,8.290164,1167.357424,1205.567865,-40.489815
1772265421560,11.915326,1135.312197,1158.505451,-32.061675
1772265421564,-1.690631,1146.596805,1159.918026,5.289436
1772265421568,-22.553283,1223.413376,1232.329207,25.714034
1772265421572,-10.130260,1150.663128,1150.454265,32.898235
1772265421576,-9.248740,1289.272502,1267.436836,29.463724
1772265421580,1.004585,1485.119970,1444.404721,6.173593
1772265421584,-7.540979,1421.137219,1399.144253,-16.994960
1772265421587,-18.524589,1128.988464,1134.618897,-12.543099
1772265421591,-7.441752,916.713208,931.381983,9.706927
1772265421595,5.541890,982.318355,1004.987938,22.138432
1772265421599,2.228511,1154.585953,1208.359976,26.815890
1772265421603,-1.839289,808.339292,887.627678,28.661465
1772265421607,8.647218,102.738614,170.126612,11.727706
1772265421611,30.695715,159.136163,205.231663,-16.624274
1772265421615,35.124717,472.976187,517.744123,-20.505825
1772265421619,-9.725727,264.475232,332.224186,-6.948036
1772265421623,-3.439144,488.534181,548.920774,9.373358
1772265421627,14.322932,993.335220,1030.433400,20.889565
1772265421630,13.267988,1043.255354,1072.961395,17.652391
1772265421634,-0.674252,903.328560,950.266924,22.047856
1772265421638,-5.907208,899.597925,962.469167,30.509654
1772265421642,0.911221,996.220023,1050.314344,20.513331
1772265421646,18.001120,949.542355,981.833714,14.820135
1772265421650,39.633202,704.383007,731.189895,34.138962
1772265421654,43.388427,521.380203,564.438851,58.608949
1772265421658,30.759538,638.143433,694.090120,55.330688
1772265421662,22.337248,894.865347,941.270180,24.182217
1772265421666,10.711540,884.847665,912.780641,7.936554
1772265421670,-7.157544,511.434928,537.248600,11.639337
1772265421673,-21.246237,196.434010,236.905758,-4.930075
1772265421677,-30.688211,358.950683,407.183058,-34.774995
1772265421681,-34.251450,799.281898,836.276784,-31.890116
1772265421685,-44.279941,879.909775,903.361218,1.634569
1772265421689,-62.012649,377.575725,404.583763,9.198224
1772265421693,-64.422499,-126.839665,-85.903601,-28.724329
1772265421697,-56.975372,-339.093258,-299.272140,-68.591424
1772265421701,-88.453120,-563.422044,-515.936781,-70.304182
1772265421705,-87.364781,-438.700453,-364.939907,-73.558547
1772265421709,-79.550832,-68.329648,44.663092,-99.644476
1772265421712,-81.831251,-68.409553,40.858700,-114.336358
1772265421716,-100.164304,-308.770794,-231.680803,-101.288616
1772265421720,-111.288016,-647.834621,-589.593861,-97.869310
1772265421724,-108.614225,-998.256504,-951.785511,-103.623599
1772265421728,-115.176768,-1367.168013,-1335.312183,-101.453360
1772265421732,-125.594374,-1622.874871,-1599.667137,-110.184622
1772265421736,-130.741482,-1594.174276,-1575.647757,-129.288306
1772265421740,-147.162387,-1408.977923,-1401.216706,-144.385569
1772265421744,-168.764593,-1321.885385,-1323.630891,-154.955715
1772265421748,-168.362567,-1401.626935,-1397.695450,-157.331842
1772265421752,-141.532581,-1487.122690,-1470.261575,-160.943153
1772265421755,-117.443729,-1398.768945,-1382.382779,-168.359187
1772265421759,-133.739288,-1209.908065,-1200.553414,-151.836016
1772265421763,-127.989115,-1162.551943,-1158.225474,-127.530127
1772265421767,-114.563141,-1224.418869,-1221.105139,-112.250141
1772265421771,-97.377060,-1262.477904,-1255.828072,-121.166623
1772265421775,-80.035377,-1177.123259,-1168.400639,-129.693872
1772265421779,-62.264088,-1037.387193,-1031.078881,-103.754397
1772265421783,-40.264031,-985.621234,-982.872919,-60.459097
1772265421787,-22.533036,-1043.562493,-1041.003202,-35.341019
1772265421791,-16.141348,-1085.309998,-1080.311401,-29.630738
1772265421794,-9.426023,-1011.195413,-1005.442017,-25.243844
1772265421798,3.579323,-881.501068,-878.001653,-14.092125
1772265421802,13.649987,-829.158992,-827.729951,6.662531
1772265421806,14.865398,-877.384660,-875.328296,27.598922
1772265421810,13.951281,-914.066743,-910.494540,25.869637
1772265421814,19.442683,-850.853631,-847.829454,12.399455
1772265421818,32.032088,-740.751195,-739.683219,15.946740
1772265421822,44.652793,-695.127808,-694.986484,24.979247
1772265421826,42.715646,-729.575289,-727.931040,25.273697
1772265421830,29.311843,-747.501768,-746.211021,33.504582
1772265421834,30.038489,-681.656709,-690.914585,55.655566
1772265421837,48.143141,-589.401283,-609.200425,67.730054
1772265421841,58.602809,-518.224259,-538.814491,54.339722
1772265421845,46.232598,-427.430489,-456.405141,37.018025
1772265421849,24.043469,-303.462182,-352.895631,35.476293
1772265421853,33.363068,-71.706833,-161.295344,25.404829
1772265421857,28.812083,9.082633,-92.472010,35.396365
1772265421861,22.499515,66.274377,-34.774788,49.816687
1772265421865,15.344445,90.990104,11.849560,44.042525
1772265421869,12.684498,102.301167,47.968371,20.607611
1772265421873,20.959984,178.737190,127.564863,15.918132
1772265421877,23.577738,215.875474,164.139611,28.353373
1772265421880,15.762696,123.313038,93.539059,43.439599
1772265421884,17.819328,13.882960,21.064745,62.164217
1772265421888,29.342038,108.115880,116.369118,71.338188
1772265421892,40.895846,422.837715,375.737437,55.049738
1772265421896,47.804671,556.035997,471.599521,24.822163
1772265421900,17.097390,404.922821,353.999505,16.756292
1772265421904,8.695581,465.998341,425.826695,16.537231
1772265421908,17.969464,589.596190,548.257630,24.941233
1772265421912,38.463142,591.273217,563.716714,32.402037
1772265421916,55.867183,478.133377,477.103088,37.936212
1772265421919,59.649889,340.672758,363.409148,38.263469
1772265421923,58.271170,222.351475,273.249913,30.414445
1772265421927,56.212889,130.583018,219.272559,20.315608
1772265421931,50.012252,139.633569,245.166869,8.090375
1772265421935,40.234941,304.004091,374.964861,-4.060136
1772265421939,31.322821,452.444817,479.603160,-2.468898
1772265421943,24.781452,444.498923,472.276425,7.313360
1772265421947,18.729532,408.437409,450.626809,8.851174
1772265421951,22.894347,480.504183,508.893715,9.919435
1772265421955,34.599401,556.424302,566.468328,15.762511
1772265421959,34.494692,491.752589,511.138996,13.526311
1772265421962,27.307256,381.766664,423.454005,6.814556
1772265421966,23.370691,330.963888,387.064149,4.202098
1772265421970,13.923459,293.549807,362.681372,-0.824909
1772265421974,-4.893504,288.167383,363.535252,-4.635747
1772265421978,-11.495229,328.654629,391.110289,-2.371377
1772265421982,11.322163,342.209846,391.003152,-1.304534
1772265421986,28.228051,253.864230,318.287935,0.015207
1772265421990,7.816293,137.992625,233.461295,7.373420
1772265421994,7.412286,177.614669,259.236802,-0.919687
1772265421998,5.332805,309.807067,356.363853,8.297392
1772265422001,13.609544,478.886171,486.744259,15.036376
1772265422005,16.385580,522.229584,522.897951,5.812857
1772265422009,-2.135410,477.190273,482.803493,-8.527298
1772265422013,-13.681433,380.940838,396.547100,-4.137029
1772265422017,-9.038438,189.693813,239.736512,18.293756
1772265422021,-8.750921,37.766942,127.391475,31.761036
1772265422025,-11.492268,133.420660,212.887114,29.282270
1772265422029,-5.599064,316.011697,346.084074,21.506209
1772265422033,12.781366,353.361652,350.553637,12.376880
1772265422037,32.781229,297.452552,286.890531,3.397014
1772265422041,11.330071,209.265602,217.144379,8.110900
1772265422044,-4.829433,257.736257,254.691498,14.644787
1772265422048,-9.903320,292.986441,277.137328,27.497802
1772265422052,-3.444690,255.050626,235.786822,22.296859
1772265422056,-1.841427,198.388875,178.715307,6.686063
1772265422060,-13.140622,142.329883,128.492451,-2.126993
1772265422064,-23.980972,95.700078,96.128029,-2.268387
1772265422068,-20.073128,89.054507,95.375762,-1.191511
1772265422072,-2.885982,166.800661,156.401147,-1.100575
1772265422076,9.332429,152.184756,139.130886,4.666600
1772265422080,6.243345,-67.740742,-39.443533,12.147704
1772265422084,-3.175847,-133.460257,-87.135663,8.590385
1772265422087,-9.182465,76.194184,78.910224,-1.020804
1772265422091,-5.645761,194.367831,169.182064,-1.591922
1772265422095,0.274108,125.750627,119.585415,4.913684
1772265422099,0.274528,125.923395,123.026123,1.929639
1772265422103,1.507044,262.022224,227.243229,-15.307376
1772265422107,-2.139909,284.521144,241.291153,-25.982152
1772265422111,-14.954465,113.766709,112.631665,-22.423147
1772265422115,-23.680594,11.679642,44.709577,-23.820077
1772265422119,-18.415089,100.210432,115.238951,-28.159671
1772265422123,1.778827,172.721338,164.536914,-24.165238
1772265422126,12.465767,86.081302,93.483943,-20.717750
1772265422130,-3.576785,9.354880,40.330012,-17.188819
1772265422134,4.915207,217.700793,202.582038,-13.966098
1772265422138,1.500200,239.038595,219.496419,-10.118858
1772265422142,-1.398467,189.525047,184.117110,-12.255193
1772265422146,-6.353011,205.631435,198.160302,-11.776364
1772265422150,-12.001254,202.371071,190.591189,-3.051455
1772265422154,-7.492002,140.638439,140.295396,-2.046947
1772265422158,0.161943,20.431057,46.788671,-11.632242
1772265422162,-5.160591,-104.780043,-50.300688,-14.083729
1772265422166,-21.867141,-160.244088,-91.980136,-6.229358
1772265422169,-25.495829,-187.049793,-114.855940,0.908243
1772265422173,0.517714,-118.632143,-66.274488,4.483613
1772265422177,27.575942,-13.795633,6.860088,5.448965
1772265422181,-3.171884,-56.688983,-22.627537,8.273269
1772265422185,-35.615833,-43.704184,-9.026767,-12.995209
1772265422189,-53.279644,27.318469,45.683358,-34.856549
1772265422193,-47.538888,113.385635,112.277815,-43.171657
1772265422197,-41.665032,84.362244,87.171065,-50.872498
1772265422201,-45.183939,-46.265105,-17.382669,-53.033861
1772265422205,-52.009359,-153.538034,-95.446949,-44.767287
1772265422209,-52.600319,-229.919537,-149.857608,-38.032047
1772265422212,-41.152588,-340.470400,-233.501556,-39.113296
1772265422216,-33.173783,-455.547765,-316.255269,-45.288264
1772265422220,-35.780500,-405.014919,-260.241561,-47.756883
1772265422224,-37.204000,-213.886965,-88.259637,-43.405503
1772265422228,-33.223462,-139.160055,-13.544339,-39.632326
1772265422232,-27.291310,-163.118179,-16.591519,-38.010037
1772265422236,-25.975622,-130.149437,28.385578,-31.430509
1772265422240,-25.646992,-112.988841,52.073810,-21.356815
1772265422244,-17.986152,-205.432391,-20.640035,-16.038551
1772265422248,-14.160706,-356.427948,-147.086547,-15.576123
1772265422251,-19.151941,-455.280946,-234.017220,-10.394918
1772265422255,-22.794048,-514.408123,-284.371458,1.444200
1772265422259,-17.596040,-617.746710,-369.321726,1.777549
1772265422263,-3.512492,-655.767672,-402.831517,-15.258096
1772265422267,-0.322896,-563.258819,-333.501479,-28.916903
1772265422271,-19.895705,-458.798102,-260.870795,-22.088593
1772265422275,-18.528109,-345.224456,-192.131451,-20.983942
1772265422279,-20.285472,-231.154004,-108.346825,-15.234412
1772265422283,-19.914510,-112.335018,-13.631864,-8.122046
1772265422287,-28.552049,-186.701859,-77.313786,-10.670470
1772265422291,-35.450618,-378.839372,-245.910169,-19.834526
1772265422294,-29.510956,-448.636546,-321.628740,-28.043148
1772265422298,-26.866866,-437.212710,-325.988534,-36.949243
1772265422302,-40.100000,-520.737383,-387.505767,-47.244478
1772265422306,-66.018997,-686.881705,-505.011259,-55.003731
1772265422310,-87.203710,-712.874050,-512.069348,-63.703302
1772265422314,-88.398032,-526.387262,-352.345359,-81.391417
1772265422318,-82.591579,-353.671316,-211.152660,-105.329524
1772265422322,-115.211471,-482.761417,-309.291647,-111.580428
1772265422326,-124.709097,-443.993764,-283.074393,-126.918229
1772265422330,-130.808828,-315.909293,-197.467163,-134.944087
1772265422333,-126.270608,-277.418774,-194.803183,-133.355174
1772265422337,-120.274234,-355.458603,-290.515579,-124.885757
1772265422341,-119.550455,-369.238448,-332.187087,-117.373402
1772265422345,-115.051039,-284.385319,-291.231697,-110.769851
1772265422349,-95.470550,-259.703917,-303.776866,-102.216298
1772265422353,-66.171740,-243.236707,-324.928138,-88.595588
1772265422357,-53.810591,-179.983931,-310.105667,-61.818386
1772265422361,-56.720546,-112.412733,-291.604631,-25.663264
1772265422365,-40.976821,109.131241,-142.915665,-0.598131
1772265422369,9.773259,335.440218,2.002235,2.077278
1772265422373,29.343426,405.923144,30.125624,15.677494
1772265422376,36.267999,381.443442,-8.659983,39.721183
1772265422380,44.775252,306.740982,-78.356308,65.227319
1772265422384,65.640786,367.880647,-36.013719,79.289947
1772265422388,89.003451,469.178385,33.771381,84.444640
1772265422392,103.478005,360.019170,-57.823114,88.460136
1772265422396,107.249646,137.819434,-231.251902,95.116490
1772265422400,108.554886,159.629113,-212.364905,104.205260
1772265422404,118.849286,415.713516,-7.837292,113.674181
1772265422408,132.991188,567.821697,111.225391,120.551154
1772265422412,138.572081,599.059052,137.261523,122.625979
1772265422416,131.508409,626.329853,164.820676,122.363227
1772265422419,119.728556,577.179134,129.446437,122.333067
1772265422423,113.821538,471.173667,55.816838,120.967435
1772265422427,112.208416,426.835775,35.930830,118.821772
1772265422431,113.665257,483.829863,92.890569,119.016646
1772265422435,119.701824,533.747010,143.039311,120.090977
1772265422439,124.511946,409.461275,52.470831,115.041843
1772265422443,118.053124,174.811491,-121.728625,103.609289
1772265422447,97.287622,81.821776,-176.630578,97.938097
1772265422451,82.125948,188.236786,-72.209830,100.834413
1772265422455,91.721686,254.219204,-5.592086,100.424047
1772265422458,114.667123,186.835094,-58.961656,95.447885
1772265422462,92.193212,176.132261,-55.983118,105.817410
1772265422466,81.474260,325.502517,75.372670,107.408655
1772265422470,77.236927,329.537216,84.945616,97.228502
1772265422474,78.270161,315.305047,80.389281,85.580645
1772265422478,74.179569,289.863912,71.284409,82.436410
1772265422482,68.406600,166.901258,-12.377396,82.587022
1772265422486,63.079249,-19.888511,-148.171786,78.269789
1772265422490,56.031909,-117.383615,-213.313246,71.088037
1772265422494,50.172616,-51.735213,-140.139849,64.066236
1772265422498,46.331885,-29.508064,-104.276987,55.760565
1772265422501,50.013985,-110.657297,-164.171070,46.505922
1772265422505,55.929091,-78.221845,-138.688989,42.143763
1772265422509,47.681204,48.064157,-33.637139,42.665668
1772265422513,30.180866,127.559826,44.046940,43.360423
1772265422517,24.745245,181.888517,98.935269,42.254284
1772265422521,41.658433,220.984376,126.813969,30.941590
1772265421853,33.363068,-71.706833,-161.295344,25.404829
1772265421857,28.812083,9.082633,-92.472010,35.396365
1772265421861,22.499515,66.274377,-34.774788,49.816687
1772265421865,15.344445,90.990104,11.849560,44.042525
1772265421869,12.684498,102.301167,47.968371,20.607611
1772265421873,20.959984,178.737190,127.564863,15.918132
1772265421877,23.577738,215.875474,164.139611,28.353373
1772265421880,15.762696,123.313038,93.539059,43.439599
1772265421884,17.819328,13.882960,21.064745,62.164217
1772265421888,29.342038,108.115880,116.369118,71.338188
1772265421892,40.895846,422.837715,375.737437,55.049738
1772265421896,47.804671,556.035997,471.599521,24.822163
1772265421900,17.097390,404.922821,353.999505,16.756292
1772265421904,8.695581,465.998341,425.826695,16.537231
1772265421908,17.969464,589.596190,548.257630,24.941233
1772265421912,38.463142,591.273217,563.716714,32.402037
1772265421916,55.867183,478.133377,477.103088,37.936212
1772265421919,59.649889,340.672758,363.409148,38.263469
1772265421923,58.271170,222.351475,273.249913,30.414445
1772265421927,56.212889,130.583018,219.272559,20.315608
1772265421931,50.012252,139.633569,245.166869,8.090375
1772265421935,40.234941,304.004091,374.964861,-4.060136
1772265421939,31.322821,452.444817,479.603160,-2.468898
1772265421943,24.781452,444.498923,472.276425,7.313360
1772265421947,18.729532,408.437409,450.626809,8.851174
1772265421951,22.894347,480.504183,508.893715,9.919435
1772265421955,34.599401,556.424302,566.468328,15.762511
1772265421959,34.494692,491.752589,511.138996,13.526311
1772265421962,27.307256,381.766664,423.454005,6.814556
1772265421966,23.370691,330.963888,387.064149,4.202098
1772265421970,13.923459,293.549807,362.681372,-0.824909
1772265421974,-4.893504,288.167383,363.535252,-4.635747
1772265421978,-11.495229,328.654629,391.110289,-2.371377
1772265421982,11.322163,342.209846,391.003152,-1.304534
1772265421986,28.228051,253.864230,318.287935,0.015207
1772265421990,7.816293,137.992625,233.461295,7.373420
1772265421994,7.412286,177.614669,259.236802,-0.919687
1772265421998,5.332805,309.807067,356.363853,8.297392
1772265422001,13.609544,478.886171,486.744259,15.036376
1772265422005,16.385580,522.229584,522.897951,5.812857
1772265422009,-2.135410,477.190273,482.803493,-8.527298
1772265422013,-13.681433,380.940838,396.547100,-4.137029
1772265422017,-9.038438,189.693813,239.736512,18.293756
1772265422021,-8.750921,37.766942,127.391475,31.761036
1772265422025,-11.492268,133.420660,212.887114,29.282270
1772265422029,-5.599064,316.011697,346.084074,21.506209
1772265422033,12.781366,353.361652,350.553637,12.376880
1772265422037,32.781229,297.452552,286.890531,3.397014
1772265422041,11.330071,209.265602,217.144379,8.110900
1772265422044,-4.829433,257.736257,254.691498,14.644787
1772265422048,-9.903320,292.986441,277.137328,27.497802
1772265422052,-3.444690,255.050626,235.786822,22.296859
1772265422056,-1.841427,198.388875,178.715307,6.686063
1772265422060,-13.140622,142.329883,128.492451,-2.126993
1772265422064,-23.980972,95.700078,96.128029,-2.268387
1772265422068,-20.073128,89.054507,95.375762,-1.191511
1772265422072,-2.885982,166.800661,156.401147,-1.100575
1772265422076,9.332429,152.184756,139.130886,4.666600
1772265422080,6.243345,-67.740742,-39.443533,12.147704
1772265422084,-3.175847,-133.460257,-87.135663,8.590385
1772265422087,-9.182465,76.194184,78.910224,-1.020804
1772265422091,-5.645761,194.367831,169.182064,-1.591922
1772265422095,0.274108,125.750627,119.585415,4.913684
1772265422099,0.274528,125.923395,123.026123,1.929639
1772265422103,1.507044,262.022224,227.243229,-15.307376
1772265422107,-2.139909,284.521144,241.291153,-25.982152
1772265422111,-14.954465,113.766709,112.631665,-22.423147
1772265422115,-23.680594,11.679642,44.709577,-23.820077
1772265422119,-18.415089,100.210432,115.238951,-28.159671
1772265422123,1.778827,172.721338,164.536914,-24.165238
1772265422126,12.465767,86.081302,93.483943,-20.717750
1772265422130,-3.576785,9.354880,40.330012,-17.188819
1772265422134,4.915207,217.700793,202.582038,-13.966098
1772265422138,1.500200,239.038595,219.496419,-10.118858
1772265422142,-1.398467,189.525047,184.117110,-12.255193
1772265422146,-6.353011,205.631435,198.160302,-11.776364
1772265422150,-12.001254,202.371071,190.591189,-3.051455
1772265422154,-7.492002,140.638439,140.295396,-2.046947
1772265422158,0.161943,20.431057,46.788671,-11.632242
1772265422162,-5.160591,-104.780043,-50.300688,-14.083729
1772265422166,-21.867141,-160.244088,-91.980136,-6.229358
1772265422169,-25.495829,-187.049793,-114.855940,0.908243
1772265422173,0.517714,-118.632143,-66.274488,4.483613
1772265422177,27.575942,-13.795633,6.860088,5.448965
1772265422181,-3.171884,-56.688983,-22.627537,8.273269
1772265422185,-35.615833,-43.704184,-9.026767,-12.995209
1772265422189,-53.279644,27.318469,45.683358,-34.856549
1772265422193,-47.538888,113.385635,112.277815,-43.171657
1772265422197,-41.665032,84.362244,87.171065,-50.872498
1772265422201,-45.183939,-46.265105,-17.382669,-53.033861
1772265422205,-52.009359,-153.538034,-95.446949,-44.767287
1772265422209,-52.600319,-229.919537,-149.857608,-38.032047
1772265422212,-41.152588,-340.470400,-233.501556,-39.113296
1772265422216,-33.173783,-455.547765,-316.255269,-45.288264
1772265422220,-35.780500,-405.014919,-260.241561,-47.756883
1772265422224,-37.204000,-213.886965,-88.259637,-43.405503
1772265422228,-33.223462,-139.160055,-13.544339,-39.632326
1772265422232,-27.291310,-163.118179,-16.591519,-38.010037
1772265422236,-25.975622,-130.149437,28.385578,-31.430509
1772265422240,-25.646992,-112.988841,52.073810,-21.356815
1772265422244,-17.986152,-205.432391,-20.640035,-16.038551
1772265422248,-14.160706,-356.427948,-147.086547,-15.576123
1772265422251,-19.151941,-455.280946,-234.017220,-10.394918
1772265422255,-22.794048,-514.408123,-284.371458,1.444200
1772265422259,-17.596040,-617.746710,-369.321726,1.777549
1772265422263,-3.512492,-655.767672,-402.831517,-15.258096
1772265422267,-0.322896,-563.258819,-333.501479,-28.916903
1772265422271,-19.895705,-458.798102,-260.870795,-22.088593
1772265422275,-18.528109,-345.224456,-192.131451,-20.983942
1772265422279,-20.285472,-231.154004,-108.346825,-15.234412
1772265422283,-19.914510,-112.335018,-13.631864,-8.122046
1772265422287,-28.552049,-186.701859,-77.313786,-10.670470
1772265422291,-35.450618,-378.839372,-245.910169,-19.834526
1772265422294,-29.510956,-448.636546,-321.628740,-28.043148
1772265422298,-26.866866,-437.212710,-325.988534,-36.949243
1772265422302,-40.100000,-520.737383,-387.505767,-47.244478
1772265422306,-66.018997,-686.881705,-505.011259,-55.003731
1772265422310,-87.203710,-712.874050,-512.069348,-63.703302
1772265422314,-88.398032,-526.387262,-352.345359,-81.391417
1772265422318,-82.591579,-353.671316,-211.152660,-105.329524
1772265422322,-115.211471,-482.761417,-309.291647,-111.580428
1772265422326,-124.709097,-443.993764,-283.074393,-126.918229
1772265422330,-130.808828,-315.909293,-197.467163,-134.944087
1772265422333,-126.270608,-277.418774,-194.803183,-133.355174
1772265422337,-120.274234,-355.458603,-290.515579,-124.885757
1772265422341,-119.550455,-369.238448,-332.187087,-117.373402
1772265422345,-115.051039,-284.385319,-291.231697,-110.769851
1772265422349,-95.470550,-259.703917,-303.776866,-102.216298
1772265422353,-66.171740,-243.236707,-324.928138,-88.595588
1772265422357,-53.810591,-179.983931,-310.105667,-61.818386
1772265422361,-56.720546,-112.412733,-291.604631,-25.663264
1772265422365,-40.976821,109.131241,-142.915665,-0.598131
1772265422369,9.773259,335.440218,2.002235,2.077278
1772265422373,29.343426,405.923144,30.125624,15.677494
1772265422376,36.267999,381.443442,-8.659983,39.721183
1772265422380,44.775252,306.740982,-78.356308,65.227319
1772265422384,65.640786,367.880647,-36.013719,79.289947
1772265422388,89.003451,469.178385,33.771381,84.444640
1772265422392,103.478005,360.019170,-57.823114,88.460136
1772265422396,107.249646,137.819434,-231.251902,95.116490
1772265422400,108.554886,159.629113,-212.364905,104.205260
1772265422404,118.849286,415.713516,-7.837292,113.674181
1772265422408,132.991188,567.821697,111.225391,120.551154
1772265422412,138.572081,599.059052,137.261523,122.625979
1772265422416,131.508409,626.329853,164.820676,122.363227
1772265422419,119.728556,577.179134,129.446437,122.333067
1772265422423,113.821538,471.173667,55.816838,120.967435
1772265422427,112.208416,426.835775,35.930830,118.821772
1772265422431,113.665257,483.829863,92.890569,119.016646
1772265422435,119.701824,533.747010,143.039311,120.090977
1772265422439,124.511946,409.461275,52.470831,115.041843
1772265422443,118.053124,174.811491,-121.728625,103.609289
1772265422447,97.287622,81.821776,-176.630578,97.938097
1772265422451,82.125948,188.236786,-72.209830,100.834413
1772265422455,91.721686,254.219204,-5.592086,100.424047
1772265422458,114.667123,186.835094,-58.961656,95.447885
1772265422462,92.193212,176.132261,-55.983118,105.817410
1772265422466,81.474260,325.502517,75.372670,107.408655
1772265422470,77.236927,329.537216,84.945616,97.228502
1772265422474,78.270161,315.305047,80.389281,85.580645
1772265422478,74.179569,289.863912,71.284409,82.436410
1772265422482,68.406600,166.901258,-12.377396,82.587022
1772265422486,63.079249,-19.888511,-148.171786,78.269789
1772265422490,56.031909,-117.383615,-213.313246,71.088037
1772265422494,50.172616,-51.735213,-140.139849,64.066236
1772265422498,46.331885,-29.508064,-104.276987,55.760565
1772265422501,50.013985,-110.657297,-164.171070,46.505922
1772265422505,55.929091,-78.221845,-138.688989,42.143763
1772265422509,47.681204,48.064157,-33.637139,42.665668
1772265422513,30.180866,127.559826,44.046940,43.360423
1772265422517,24.745245,181.888517,98.935269,42.254284
1772265422521,41.658433,220.984376,126.813969,30.941590
1772265422525,31.692243,113.215039,47.328694,24.874847
1772265422529,41.996935,67.086335,15.495579,16.245396
1772265422533,49.226971,-73.749359,-91.885929,13.603325
1772265422537,43.676472,-174.442211,-165.420539,17.871631
1772265422540,35.410935,-195.757139,-173.167248,25.154678
1772265422544,36.090816,-276.469444,-223.283879,29.080625
1772265422548,37.678130,-362.298554,-279.360826,28.476130
1772265422552,32.998382,-256.855921,-186.896665,24.846151
1772265422556,21.079165,-94.575379,-53.249099,19.476720
1772265422560,10.165555,-42.201352,-11.019753,15.649362
1772265422564,7.998045,-18.727874,11.633901,15.444495
1772265422568,4.565704,-27.953621,7.492599,16.644044
1772265422572,-1.470615,-97.412950,-46.184350,15.495230
1772265422576,-0.711064,-147.491303,-79.292276,12.627989
1772265422580,5.955633,-189.830603,-106.385083,8.740421
1772265422583,7.383152,-283.468083,-177.478390,5.979337
1772265422587,-4.270480,-439.055710,-297.498281,7.935407
1772265422591,-15.854008,-500.071282,-338.115186,5.322325
1772265422595,-14.422972,-280.445220,-159.258688,-12.632557
1772265422599,-1.086963,-22.042978,37.678360,-37.011805
1772265422603,-12.302168,-119.082860,-38.151714,-43.010584
1772265422607,-23.606513,-228.939912,-116.108782,-40.684203
1772265422611,-24.546079,-212.678401,-97.995041,-37.246726
1772265422615,-9.423332,-90.012023,-2.024482,-35.233388
1772265422619,3.423822,-64.842702,11.111145,-31.221525
1772265422623,2.699438,-157.859892,-61.857413,-24.505372
1772265422626,-7.858125,-241.146042,-115.880975,-18.024899
1772265422630,-14.430350,-293.746199,-145.593392,-15.500612
1772265422634,-10.489089,-364.662406,-198.313433,-17.066280
1772265422638,-5.044906,-375.100663,-214.271885,-18.064665
1772265422642,-1.983851,-213.729939,-90.470668,-15.799602
1772265422646,-4.469757,-61.539522,33.168397,-12.327331
1772265422650,-9.766001,-51.883811,38.728297,-10.467156
1772265422654,-9.842968,-19.182136,60.853882,-10.110411
1772265422658,-8.318657,50.821705,114.877627,-8.538292
1772265422662,-7.516849,2.191487,78.096187,-8.794233
1772265422665,-8.342373,-138.756418,-29.916954,-14.313185
1772265422669,-12.371478,-209.521250,-86.099738,-19.993541
1772265422673,-21.789320,-196.924267,-77.996420,-20.913015
1772265422677,-37.797873,-243.002400,-114.767934,-18.338186
1772265422681,-42.618273,-308.781986,-163.266999,-19.756478
1772265422685,-27.296020,-234.114530,-104.075544,-28.520076
1772265422689,-12.236891,-121.005783,-26.928637,-36.580499
1772265422693,-20.128159,-97.021605,-17.467641,-34.223084
1772265422525,31.692243,113.215039,47.328694,24.874847
1772265422529,41.996935,67.086335,15.495579,16.245396
1772265422533,49.226971,-73.749359,-91.885929,13.603325
1772265422537,43.676472,-174.442211,-165.420539,17.871631
1772265422540,35.410935,-195.757139,-173.167248,25.154678
1772265422544,36.090816,-276.469444,-223.283879,29.080625
1772265422548,37.678130,-362.298554,-279.360826,28.476130
1772265422552,32.998382,-256.855921,-186.896665,24.846151
1772265422556,21.079165,-94.575379,-53.249099,19.476720
1772265422560,10.165555,-42.201352,-11.019753,15.649362
1772265422564,7.998045,-18.727874,11.633901,15.444495
1772265422568,4.565704,-27.953621,7.492599,16.644044
1772265422572,-1.470615,-97.412950,-46.184350,15.495230
1772265422576,-0.711064,-147.491303,-79.292276,12.627989
1772265422580,5.955633,-189.830603,-106.385083,8.740421
1772265422583,7.383152,-283.468083,-177.478390,5.979337
1772265422587,-4.270480,-439.055710,-297.498281,7.935407
1772265422591,-15.854008,-500.071282,-338.115186,5.322325
1772265422595,-14.422972,-280.445220,-159.258688,-12.632557
1772265422599,-1.086963,-22.042978,37.678360,-37.011805
1772265422603,-12.302168,-119.082860,-38.151714,-43.010584
1772265422607,-23.606513,-228.939912,-116.108782,-40.684203
1772265422611,-24.546079,-212.678401,-97.995041,-37.246726
1772265422615,-9.423332,-90.012023,-2.024482,-35.233388
1772265422619,3.423822,-64.842702,11.111145,-31.221525
1772265422623,2.699438,-157.859892,-61.857413,-24.505372
1772265422626,-7.858125,-241.146042,-115.880975,-18.024899
1772265422630,-14.430350,-293.746199,-145.593392,-15.500612
1772265422634,-10.489089,-364.662406,-198.313433,-17.066280
1772265422638,-5.044906,-375.100663,-214.271885,-18.064665
1772265422642,-1.983851,-213.729939,-90.470668,-15.799602
1772265422646,-4.469757,-61.539522,33.168397,-12.327331
1772265422650,-9.766001,-51.883811,38.728297,-10.467156
1772265422654,-9.842968,-19.182136,60.853882,-10.110411
1772265422658,-8.318657,50.821705,114.877627,-8.538292
1772265422662,-7.516849,2.191487,78.096187,-8.794233
1772265422665,-8.342373,-138.756418,-29.916954,-14.313185
1772265422669,-12.371478,-209.521250,-86.099738,-19.993541
1772265422673,-21.789320,-196.924267,-77.996420,-20.913015
1772265422677,-37.797873,-243.002400,-114.767934,-18.338186
1772265422681,-42.618273,-308.781986,-163.266999,-19.756478
1772265422685,-27.296020,-234.114530,-104.075544,-28.520076
1772265422689,-12.236891,-121.005783,-26.928637,-36.580499
1772265422693,-20.128159,-97.021605,-17.467641,-34.223084
1772265422697,-29.280967,-69.020450,9.584243,-29.830368
1772265422701,-32.036938,-27.369140,41.570273,-30.449116
1772265422705,-31.790259,63.893923,111.750702,-30.033246
1772265422708,-32.280276,28.208011,82.691420,-29.516964
1772265422712,-27.658324,-92.408496,-10.538970,-29.604552
1772265422716,-17.751148,-144.230086,-49.205622,-28.986057
1772265422720,-10.629053,-176.377714,-77.589341,-29.457922
1772265422724,-10.509392,-298.182271,-175.442877,-29.302073
1772265422728,-20.725778,-412.931705,-263.579421,-23.115434
1772265422732,-30.560839,-352.758661,-210.849389,-12.856063
1772265422736,-22.902869,-183.084825,-75.814356,-4.326660
1772265422740,1.383413,-9.050912,51.684429,-3.556876
1772265423880,5.487858,111.267222,69.771262,11.599762
1772265423884,2.662264,74.308802,41.558364,-1.150876
1772265423888,1.358144,44.855299,18.454902,-10.817234
1772265423892,-3.767542,-90.274813,-89.000289,-4.845987
1772265423896,-7.589453,-227.622897,-194.850425,7.830756
1772265423900,4.637657,-137.027970,-120.676219,14.147373
1772265423904,22.974856,51.702939,27.930624,5.589970
1772265423908,7.338116,22.277666,-4.225469,-17.649102
1772265423911,-38.748773,-76.516409,-93.366953,-31.883665
1772265423915,-55.924253,89.723987,42.712830,-34.434216
1772265423919,-45.756365,114.788310,59.401628,-39.000806
1772265423923,-34.641175,27.171493,-11.948442,-37.636754
1772265423927,-44.031861,-30.562093,-54.592878,-30.282190
1772265423931,-62.745210,16.963335,-13.793557,-17.840446
1772265423935,-65.769054,99.938860,56.416166,-7.525734
1772265423939,-59.524771,55.286498,22.444222,-4.174272
1772265423943,-54.976458,-59.110107,-65.884540,-7.078583
1772265423947,-43.560032,-72.549939,-74.968934,-7.235478
1772265423950,-28.706568,-63.073829,-71.198636,1.453451
1772265423954,-24.571151,-119.638923,-113.940828,10.547186
1772265423958,-28.372630,-86.050084,-83.572086,12.438243
1772265423962,-26.901058,87.828406,51.597493,12.225276
1772265423966,-19.886280,137.788150,84.310514,14.496006
1772265423970,-13.324235,12.823829,-23.619863,15.091211
1772265423974,-8.173718,-14.453140,-47.084042,12.271331
1772265423978,-8.886957,75.236595,28.100341,9.441370
1772265423982,-13.953020,78.121290,35.433066,9.222045
1772265423986,-10.979982,-59.232775,-67.591567,9.280037
1772265423990,7.132653,-185.866338,-167.877166,6.156435
1772265423993,27.886200,-115.974245,-114.144341,5.671140
1772265423997,28.220382,5.985657,-15.225964,13.060639
1772265424001,9.872821,-14.548106,-26.113289,22.354812
1772265424005,4.185416,-26.739858,-31.158621,24.106217
1772265424009,18.800705,62.987005,28.390767,15.954494
1772265424013,24.706155,109.946059,67.843628,15.793986
1772265424017,24.730824,53.561667,25.885695,11.188841
1772265424021,20.129195,76.353135,40.600031,5.984341
1772265424025,23.470053,180.739871,121.112784,5.914378
1772265424029,26.928730,165.932647,110.791752,10.471927
1772265424033,26.280201,-28.674440,-36.820549,17.195841
1772265424036,24.691212,-179.906277,-146.361160,23.661335
1772265424040,29.594007,-160.857521,-130.040530,25.663929
1772265424044,46.376289,-112.298129,-97.181803,21.291575
1772265424048,52.987834,-81.645714,-74.257030,13.650896
1772265424052,34.197194,14.818986,11.184474,12.437100
1772265424056,30.507336,191.456401,152.626243,14.644572
1772265424060,22.775596,184.016233,141.835377,23.517590
1772265424064,24.566439,166.188929,126.431287,24.353343
1772265424068,28.905829,177.854351,135.827623,18.896401
1772265424072,30.868295,101.080993,72.097663,13.101830
1772265424075,32.138869,-7.055648,-10.916182,10.102272
1772265424079,33.970504,-57.498373,-43.428268,7.002039
1772265424083,39.376450,-70.614682,-45.510919,0.155649
1772265424087,43.310355,-145.599492,-98.875559,-5.220900
1772265424091,47.023306,-243.861145,-175.891658,-5.420401
1772265424095,53.400173,-140.431926,-96.779744,-5.180242
1772265424099,50.827958,87.254417,77.245423,-5.159620
1772265424103,40.506680,164.880247,137.809043,5.475910
1772265424107,34.958649,144.740975,132.993677,26.146198
1772265424111,35.910103,194.262256,181.414564,30.035097
1772265424115,32.178703,243.788713,213.759141,4.953029
1772265424118,19.149064,171.230685,141.865521,-24.827699
1772265423119,-4.239090,124.097240,96.068316,-17.667255
1772265423122,-1.937916,117.550625,86.978800,-8.821826
1772265423126,4.627457,129.089511,95.128449,-0.859547
1772265423130,3.845342,99.129967,72.911283,-9.864046
1772265423134,-1.874444,80.651213,63.681544,-21.200450
1772265423138,-1.415559,72.602198,60.675729,-17.304299
1772265423142,9.294424,-15.467439,-9.297814,-12.497602
1772265423146,17.722785,-157.131848,-122.434065,-17.292078
1772265423150,14.773388,-188.267845,-146.713864,-15.097269
1772265423154,9.600273,-102.393266,-72.629018,2.519543
1772265423158,11.192169,-17.402519,-1.979495,18.037107
1772265423162,27.608885,140.445492,115.205881,15.389109
1772265423165,40.004941,221.428813,169.399895,8.582872
1772265423169,32.461149,191.292025,141.501960,14.312195
1772265423173,17.735688,72.456697,46.629003,18.672099
1772265423177,11.397137,-28.818847,-33.335614,17.030440
1772265423181,17.594077,-23.615486,-34.261749,12.980786
1772265423185,21.743872,54.011681,22.988247,9.887212
1772265423189,10.273000,24.756654,0.451250,10.268236
1772265423193,-3.534739,-73.492309,-70.348598,11.149226
1772265423197,-9.039469,-49.268840,-47.561263,5.286618
1772265423201,-12.828704,19.910945,1.905913,-6.151897
1772265423204,-17.443258,-37.726830,-46.223761,-10.542676
1772265423208,-13.516967,-83.358131,-79.063699,-2.358050
1772265423212,1.596437,33.234077,20.211847,4.109286
1772265423216,7.208747,92.941463,71.164419,-2.603270
1772265423220,-3.160151,21.839440,12.189281,-15.472638
1772265423224,-14.867956,69.396798,49.986476,-27.624250
1772265423228,-22.040549,219.232300,166.913100,-38.445139
1772265423232,-21.507834,222.616375,164.414161,-46.027128
1772265423236,-20.200557,13.818697,-0.505649,-47.227816
1772265423240,-27.866325,-209.345685,-170.606131,-40.021489
1772265423244,-35.955378,-196.746959,-153.782132,-31.415512
1772265423247,-24.839071,-35.014737,-31.115442,-29.494982
1772265423251,10.560823,45.316905,19.793514,-31.724600
1772265423255,35.615679,36.045427,7.208334,-28.613871
1772265423259,25.102702,224.381954,159.817422,-10.895153
1772265423263,31.545682,251.385939,172.728951,-5.755578
1772265423267,34.013587,125.553154,65.564080,-2.555517
1772265423271,30.639514,83.563682,25.276539,-0.529515
1772265423275,22.978837,171.752845,93.729623,2.525278
1772265423279,19.606013,215.621069,132.230222,11.132379
1772265423283,29.420430,119.283389,62.122547,18.578979
1772265423287,43.428447,-27.355003,-55.049274,19.242544
1772265423290,42.794956,-143.321666,-156.174217,20.014356
1772265423294,24.584724,-185.447597,-189.084468,27.051204
1772265423298,10.956286,-51.292105,-75.134488,35.659518
1772265423302,24.847470,192.772393,116.758831,33.714190
1772265423306,38.897184,215.485717,122.927166,26.110003
1772265423310,25.542620,162.574471,78.478427,32.079303
1772265423314,10.644820,149.427510,71.491455,38.891521
1772265423318,9.358531,216.530198,126.753910,39.470932
1772265423322,23.894153,214.133836,126.005999,34.321318
1772265423326,34.713088,112.543091,50.306869,27.447130
1772265423329,27.697535,-36.005449,-64.718127,22.933514
1772265423333,17.003088,-124.095475,-129.479675,20.993520
1772265423337,15.721564,-164.741751,-155.395637,19.609030
1772265423341,22.367712,-202.591513,-182.010386,17.742010
1772265423345,24.626101,-119.151261,-112.353305,16.060437
1772265423349,16.728368,25.109966,1.485065,16.042362
1772265423353,10.508085,98.633918,60.739314,17.677426
1772265423357,8.580963,154.609129,111.284182,18.698630
1772265423361,4.423886,214.423889,162.807762,17.574076
1772265423365,-1.023249,209.980009,158.356736,17.293930
1772265423369,-0.609808,124.726025,84.983527,19.378042
1772265423372,9.247184,46.874184,23.384387,20.253838
1772265423376,12.542715,-14.082939,-19.966626,18.884977
1772265423380,-1.522183,-133.068010,-115.396008,17.714187
1772265423384,-16.358513,-289.910472,-238.261145,16.790395
1772265423388,-12.448605,-296.691292,-237.995375,12.351817
1772265423392,10.846728,-43.818140,-37.695195,3.791958
1772265423396,21.676751,140.947339,99.369226,-1.272739
1772265423400,-6.543753,47.100919,25.534639,4.110365
1772265423404,-9.629817,34.213017,17.392540,6.321392
1772265423408,-10.457204,110.232613,79.786169,7.458916
1772265423411,-14.029663,100.068996,72.644523,3.698558
1772265423415,-18.976100,-16.758312,-14.773404,2.150308
1772265423419,-18.534236,-95.271357,-72.127252,4.381740
1772265423423,-8.843435,-39.637559,-21.924890,1.964351
1772265423427,-0.493017,-15.968204,-0.703621,-6.206320
1772265423431,-4.202912,-168.075982,-122.666005,-12.366548
1772265423435,-23.177547,-293.794004,-217.018781,-14.194539
1772265423439,-42.971537,-200.763429,-137.873513,-14.537012
1772265423443,-32.439083,81.207535,87.468752,-14.490138
1772265423447,-11.008655,120.934722,111.747406,-19.823459
1772265423451,-19.402921,55.408138,53.367946,-19.194438
1772265423454,-28.655018,82.239592,74.119383,-14.132060
1772265423458,-25.347425,85.404698,79.651861,-7.404488
1772265423462,-9.383596,55.487590,58.514557,0.415467
1772265423466,3.397932,49.858213,54.542336,7.482871
1772265423470,-0.646091,-50.088089,-27.649866,10.540945
1772265423474,-13.664592,-237.106924,-171.190733,7.990557
1772265423478,-21.088858,-241.271406,-166.665457,3.296860
1772265423482,-16.034881,17.957164,38.246201,-1.600978
1772265423486,-9.401762,196.894975,171.214790,-6.268224
1772265423490,-10.883292,111.966883,94.453606,-6.570779
1772265423494,-11.417142,23.119644,23.739773,-3.885256
1772265423497,-7.576364,59.722048,53.697614,-2.455001
1772265423501,-4.470229,93.766608,80.101146,0.798613
1772265423505,-5.047570,50.320720,48.767010,6.652393
1772265423509,-6.455441,-25.900393,-10.306858,6.876840
1772265423513,-3.747281,-60.847264,-34.390366,-1.655340
1772265423517,-4.619397,-150.062542,-100.900426,-8.161102
1772265423521,-16.314319,-296.210484,-216.250241,-3.792444
1772265423525,-32.335298,-247.742670,-173.516691,4.433287
1772265423529,-33.721305,-56.205020,-18.033586,4.819860
1772265423533,-8.272325,49.325949,66.815325,-2.223981
1772265423536,15.352068,89.429722,94.640520,-4.300202
1772265423540,-2.299112,151.280273,139.851659,8.632703
1772265423544,-4.095440,123.467841,110.095485,2.009588
1772265423548,-2.864361,29.721140,30.492242,-5.337055
1772265423552,0.783553,-4.059338,4.163081,-10.459384
1772265423556,-1.374240,82.143908,74.615790,-11.046158
1772265423560,-8.669122,124.022093,103.794720,-6.958179
1772265423564,-9.172261,10.134340,12.129784,-5.426524
1772265423568,-4.459567,-162.705567,-126.196717,-11.092249
1772265423572,-5.706382,-195.813356,-158.701917,-16.855940
1772265423576,-18.929037,-134.287734,-113.572601,-10.644265
1772265423579,-29.188554,-162.337670,-133.027743,2.890769
1772265423583,-14.640525,-138.159709,-104.755591,2.219654
1772265423587,6.927193,-42.602670,-33.804975,-12.167217
1772265423591,-2.478097,26.788883,13.472915,-11.578724
1772265423595,-16.789421,13.274610,2.180832,-5.707692
1772265423599,-22.463934,59.891237,41.690486,0.902097
1772265423603,-14.430258,150.489153,117.526606,0.910578
1772265423607,-6.896581,124.811031,100.844136,-4.294124
1772265423611,-11.390461,-43.258060,-32.789727,-4.722932
1772265423615,-18.253525,-152.369480,-120.333071,2.014433
1772265423618,-17.932547,-123.952349,-100.241318,7.096505
1772265423622,-8.584542,-130.102527,-101.929356,4.850925
1772265423626,-1.973231,-209.348239,-156.931273,-1.097793
1772265423630,-5.028413,-143.186075,-102.993721,-5.632460
1772265423634,-6.746165,37.849674,38.793790,-5.268717
1772265423638,-4.636914,70.438827,60.550064,-1.000139
1772265423642,-2.928533,16.784780,15.265333,1.563826
1772265423646,-3.827607,62.235734,50.039216,1.862324
1772265423650,-2.915971,153.344041,115.839465,1.813353
1772265423654,6.944310,157.492612,117.706767,-1.362258
1772265423658,14.599433,-17.775514,-16.469846,-6.180600
1772265423661,7.898059,-223.051732,-173.107572,-4.109722
1772265423665,-6.589581,-229.999214,-173.452677,6.735412
1772265423669,-10.415842,-113.339212,-82.365900,13.470658
1772265423673,5.387298,55.298620,52.018532,4.072822
1772265423677,17.397915,153.808295,129.348546,-10.692709
1772265423681,-14.337500,169.492842,138.375158,-5.156413
1772265423685,-13.763137,172.466232,140.979795,-0.730556
1772265423689,-4.780735,114.483868,95.884487,6.026470
1772265423693,2.693737,60.077842,52.872619,10.083751
1772265423697,-4.118757,18.456377,20.651544,9.206144
1772265423701,-12.364073,-2.712267,4.393764,3.551186
1772265423704,-0.575779,16.652861,25.948866,-3.740634
1772265423708,20.630562,21.275662,31.410946,-9.182683
1772265423712,26.849748,-94.235886,-66.192648,-12.772579
1772265423716,6.873424,-267.033574,-206.433765,-11.555267
1772265423720,-16.041055,-215.277940,-164.225315,-0.648147
1772265423724,-12.035894,73.582438,68.748861,5.313650
1772265423728,-1.296688,144.174653,115.022725,-12.520796
1772265423732,-19.420607,63.538609,43.244526,-22.814892
1772265423736,-26.893069,60.989558,39.591500,-17.609784
1772265423740,-24.688147,121.520211,87.105190,-8.778988
1772265423743,-13.175690,152.870099,117.164765,-7.262665
1772265423747,-1.908353,50.675657,40.451314,-6.711884
1772265423751,2.176613,-138.428852,-109.727872,1.528917
1772265423755,0.437838,-234.173530,-180.868166,11.982651
1772265423759,-4.656839,-257.494167,-193.076804,13.387735
1772265423763,-2.676221,-189.186811,-134.718376,6.110043
1772265423767,2.921217,-19.166241,-5.514101,-0.814165
1772265423771,-0.118027,60.344593,45.574958,-3.481562
1772265423775,-8.009434,56.479232,40.940577,0.554882
1772265423779,-7.848551,123.628104,96.328654,10.132921
1772265423783,1.020676,232.175780,184.131052,16.965607
1772265423786,3.178614,201.978941,162.072748,19.408514
1772265423790,0.170780,42.373329,32.793769,18.480955
1772265423794,5.327848,-33.905317,-30.813707,12.115667
1772265423798,10.988638,-39.869908,-40.670570,5.362394
1772265423802,5.023729,-139.929284,-123.515043,5.283192
1772265423806,-10.904420,-305.631070,-252.542833,9.023893
1772265423810,-18.837897,-294.343421,-240.082443,7.423575
1772265423814,-3.506507,-57.719044,-50.894244,-3.260102
1772265423818,12.657755,120.276763,80.201652,-14.066103
1772265423822,-14.727950,26.328611,-0.194762,-6.506472
1772265423825,-15.727829,87.835271,47.510376,-8.386774
1772265423829,-3.503705,183.049155,119.377040,-9.050899
1772265423833,11.047950,151.702049,95.218883,-8.635080
1772265423837,11.713667,22.546629,-3.359631,-5.999229
1772265423841,2.098806,-55.473109,-64.727934,-1.705683
1772265423845,-1.328633,-37.719878,-47.445519,1.154596
1772265423849,5.654300,-71.743852,-72.776038,-0.625326
1772265423853,13.335545,-150.756184,-136.749264,-3.080659
1772265423857,5.183036,-178.619023,-160.346318,3.506615
1772265423861,-16.698588,-156.807601,-142.020700,15.248530
1772265423865,-23.369774,12.497736,-0.475709,16.514155
1772265423868,-13.108685,22.714703,3.694010,0.720261
1772265423872,-3.427742,96.626366,60.371338,5.498318
1772265423876,6.173341,152.085183,103.211246,12.889074
1772265423880,5.487858,111.267222,69.771262,11.599762
1772265423884,2.662264,74.308802,41.558364,-1.150876
1772265423888,1.358144,44.855299,18.454902,-10.817234
1772265423892,-3.767542,-90.274813,-89.000289,-4.845987
1772265423896,-7.589453,-227.622897,-194.850425,7.830756
1772265423900,4.637657,-137.027970,-120.676219,14.147373
1772265423904,22.974856,51.702939,27.930624,5.589970
1772265423908,7.338116,22.277666,-4.225469,-17.649102
1772265423911,-38.748773,-76.516409,-93.366953,-31.883665
1772265423915,-55.924253,89.723987,42.712830,-34.434216
1772265423919,-45.756365,114.788310,59.401628,-39.000806
1772265423923,-34.641175,27.171493,-11.948442,-37.636754
1772265423927,-44.031861,-30.562093,-54.592878,-30.282190
1772265423931,-62.745210,16.963335,-13.793557,-17.840446
1772265423935,-65.769054,99.938860,56.416166,-7.525734
1772265423939,-59.524771,55.286498,22.444222,-4.174272
1772265423943,-54.976458,-59.110107,-65.884540,-7.078583
1772265423947,-43.560032,-72.549939,-74.968934,-7.235478
1772265423950,-28.706568,-63.073829,-71.198636,1.453451
1772265423954,-24.571151,-119.638923,-113.940828,10.547186
1772265423958,-28.372630,-86.050084,-83.572086,12.438243
1772265423962,-26.901058,87.828406,51.597493,12.225276
1772265423966,-19.886280,137.788150,84.310514,14.496006
1772265423970,-13.324235,12.823829,-23.619863,15.091211
1772265423974,-8.173718,-14.453140,-47.084042,12.271331
1772265423978,-8.886957,75.236595,28.100341,9.441370
1772265423982,-13.953020,78.121290,35.433066,9.222045
1772265423986,-10.979982,-59.232775,-67.591567,9.280037
1772265423990,7.132653,-185.866338,-167.877166,6.156435
1772265423993,27.886200,-115.974245,-114.144341,5.671140
1772265423997,28.220382,5.985657,-15.225964,13.060639
1772265424001,9.872821,-14.548106,-26.113289,22.354812
1772265424005,4.185416,-26.739858,-31.158621,24.106217
1772265424009,18.800705,62.987005,28.390767,15.954494
1772265424013,24.706155,109.946059,67.843628,15.793986
1772265424017,24.730824,53.561667,25.885695,11.188841
1772265424021,20.129195,76.353135,40.600031,5.984341
1772265424025,23.470053,180.739871,121.112784,5.914378
1772265424029,26.928730,165.932647,110.791752,10.471927
1772265424033,26.280201,-28.674440,-36.820549,17.195841
1772265424036,24.691212,-179.906277,-146.361160,23.661335
1772265424040,29.594007,-160.857521,-130.040530,25.663929
1772265424044,46.376289,-112.298129,-97.181803,21.291575
1772265424048,52.987834,-81.645714,-74.257030,13.650896
1772265424052,34.197194,14.818986,11.184474,12.437100
1772265424056,30.507336,191.456401,152.626243,14.644572
1772265424060,22.775596,184.016233,141.835377,23.517590
1772265424064,24.566439,166.188929,126.431287,24.353343
1772265424068,28.905829,177.854351,135.827623,18.896401
1772265424072,30.868295,101.080993,72.097663,13.101830
1772265424075,32.138869,-7.055648,-10.916182,10.102272
1772265424079,33.970504,-57.498373,-43.428268,7.002039
1772265424083,39.376450,-70.614682,-45.510919,0.155649
1772265424087,43.310355,-145.599492,-98.875559,-5.220900
1772265424091,47.023306,-243.861145,-175.891658,-5.420401
1772265424095,53.400173,-140.431926,-96.779744,-5.180242
1772265424099,50.827958,87.254417,77.245423,-5.159620
1772265424103,40.506680,164.880247,137.809043,5.475910
1772265424107,34.958649,144.740975,132.993677,26.146198
1772265424111,35.910103,194.262256,181.414564,30.035097
1772265424115,32.178703,243.788713,213.759141,4.953029
1772265424118,19.149064,171.230685,141.865521,-24.827699
1772265422744,-0.108298,-15.160887,44.588957,-2.918881
1772265422748,-12.670801,-18.571034,46.119170,-3.411239
1772265422751,-21.211358,-27.008136,44.146834,-5.479067
1772265422755,-17.177730,-14.602782,56.378084,-11.051480
1772265422759,-13.761542,6.226472,64.876377,-19.291322
1772265422763,-20.610285,-18.606414,39.339536,-25.178058
1772265422767,-34.997111,-179.551876,-84.057797,-25.296689
1772265422771,-39.952779,-362.846635,-223.275098,-23.784029
1772265422775,-31.521038,-312.742782,-184.104772,-25.999471
1772265422779,-21.444567,-175.749201,-87.728267,-28.707944
1772265422783,-13.933541,-151.227268,-75.177236,-23.760204
1772265422787,-13.214430,-115.809576,-41.515455,-12.751687
1772265422790,-12.956517,-7.903623,48.450548,-5.714088
1772265422794,-6.931577,55.542206,98.753094,-4.866421
1772265422798,-5.107292,8.260721,58.935970,-4.466083
1772265422802,-6.754591,-13.370907,43.084262,-3.664270
1772265422806,-6.985549,51.455318,95.566144,-6.073117
1772265422810,-7.317130,23.979796,67.242437,-11.553140
1772265422814,-10.061964,-154.831112,-77.771477,-16.711651
1772265422818,-17.140276,-275.328487,-168.094433,-15.761320
1772265422822,-16.280600,-147.749788,-61.180446,-8.135159
1772265422826,2.607184,11.916169,61.249036,-5.859381
1772265422830,27.653763,-105.642418,-43.571437,-10.869863
1772265422833,28.947744,-301.744886,-199.182631,-8.661166
1772265422837,5.342338,-92.524133,-23.159068,-2.905368
1772265422841,-14.884498,-22.244307,33.343897,-9.898792
1772265422845,-25.821513,-42.183169,14.807842,-13.172397
1772265422849,-32.279544,-1.586208,40.352225,-9.364941
1772265422853,-37.116756,150.547758,157.365869,-6.398136
1772265422857,-37.289048,206.616513,199.105468,-5.845623
1772265422861,-31.178863,23.850691,50.364957,-8.316452
1772265422865,-26.346957,-200.313680,-128.597791,-11.378002
1772265422869,-33.992695,-227.465203,-150.622552,-7.448371
1772265422872,-45.150691,-89.311015,-36.239248,0.249822
1772265422876,-42.033585,25.213328,58.074452,1.828544
1772265422880,-16.822152,38.901240,57.622164,-4.329143
1772265422884,-9.209406,-24.528035,-3.082804,-6.380975
1772265422888,-19.163586,28.951825,37.766849,-3.743474
1772265422892,-26.486686,38.448787,49.715088,1.111705
1772265422896,-21.882026,94.539381,100.318158,2.078474
1772265422900,-12.466411,130.344894,127.390009,-2.863281
1772265422904,-6.807218,63.046186,70.630487,-7.555922
1772265422908,-11.898891,-60.657613,-28.802257,-7.193883
1772265422912,-15.947403,-76.598289,-38.745764,-4.570043
1772265422915,-9.151640,-28.773609,2.662503,-5.925326
1772265422919,0.157557,-136.345982,-84.807926,-9.751177
1772265422923,3.870174,-204.700491,-138.473926,-9.674992
1772265422927,0.623377,-6.496799,18.735445,-6.078039
1772265422931,-2.144172,203.827133,179.111925,-4.374602
1772265422935,-4.138919,211.166740,179.076374,-4.220928
1772265422939,-8.757043,124.013193,106.546858,-0.792377
1772265422943,-9.326694,104.497928,92.999497,4.088392
1772265422947,-4.344532,100.363201,89.874457,4.513557
1772265422951,4.801606,5.830669,9.446477,1.896147
1772265422955,9.310080,-107.011067,-78.251235,3.626730
1772265422958,0.714345,-157.866919,-110.859475,11.629459
1772265422962,-3.418081,-156.182599,-104.283161,17.000521
1772265422966,10.587242,-114.909089,-76.546317,10.965040
1772265422970,28.894219,17.740064,13.706231,-0.970551
1772265422974,26.436006,144.942717,107.551871,-4.021414
1772265422978,12.918943,203.595228,158.171896,1.245415
1772265422982,12.427209,230.455357,179.101408,-0.192932
1772265422986,8.040265,301.651724,238.449611,-2.207517
1772265422990,-2.186027,290.898247,228.512838,-6.666904
1772265422994,-10.799045,182.211048,145.305349,-11.032696
1772265422997,-9.901703,77.243076,64.448712,-13.630609
1772265423001,2.120016,39.104296,29.347430,-18.283701
1772265423005,11.900890,-8.976673,-12.833975,-21.874485
1772265423009,7.161050,-209.913378,-171.129573,-16.826106
1772265423013,-2.979589,-329.625655,-255.639425,-5.422414
1772265423017,-3.704757,-81.425744,-48.835224,4.056793
1772265423021,12.243389,309.590821,256.263883,3.456366
1772265423025,14.204615,320.578354,254.814376,0.832055
1772265423029,0.913834,222.354123,173.011575,3.469885
1772265423033,-8.676211,214.229938,167.186680,6.913452
1772265423037,-7.447833,227.635836,178.861840,7.365730
1772265423040,-3.987387,186.840084,144.230114,5.372184
1772265423044,-8.109904,134.564754,105.080607,3.537249
1772265423048,-20.923360,44.051187,40.524632,4.459569
1772265423052,-27.232900,-105.041555,-70.297732,5.154077
1772265423056,-23.461779,-186.944159,-132.345443,-0.029640
1772265423060,-17.962269,-74.734748,-45.442329,-7.960030
1772265423064,-14.955149,76.674693,71.761614,-14.007194
1772265423068,-18.048330,57.422279,51.585560,-19.269484
1772265423072,-18.667549,48.239044,44.323188,-22.295686
1772265423076,-13.777128,206.978269,175.433439,-20.096145
1772265423079,-10.787407,329.120665,271.865954,-14.441053
1772265423083,-7.334723,263.266340,217.434345,-11.158142
1772265423087,-1.936781,109.465340,93.733834,-14.682959
1772265423091,6.176801,33.081960,32.116093,-19.813633
1772265423095,9.590495,-10.831533,-1.747865,-17.912844
1772265423099,-1.880476,-150.110698,-112.307370,-12.280347
1772265423103,-14.567977,-198.070996,-147.469875,-10.867929
1772265423107,-11.120003,-35.555482,-18.486376,-15.321264
1772265423111,6.224669,102.240872,82.171372,-24.015828
1772265423115,11.097400,126.648956,93.273955,-28.077995
1772265423119,-4.239090,124.097240,96.068316,-17.667255
1772265423122,-1.937916,117.550625,86.978800,-8.821826
1772265423126,4.627457,129.089511,95.128449,-0.859547
1772265423130,3.845342,99.129967,72.911283,-9.864046
1772265423134,-1.874444,80.651213,63.681544,-21.200450
1772265423138,-1.415559,72.602198,60.675729,-17.304299
1772265423142,9.294424,-15.467439,-9.297814,-12.497602
1772265423146,17.722785,-157.131848,-122.434065,-17.292078
1772265423150,14.773388,-188.267845,-146.713864,-15.097269
1772265423154,9.600273,-102.393266,-72.629018,2.519543
1772265423158,11.192169,-17.402519,-1.979495,18.037107
1772265423162,27.608885,140.445492,115.205881,15.389109
1772265423165,40.004941,221.428813,169.399895,8.582872
1772265423169,32.461149,191.292025,141.501960,14.312195
1772265423173,17.735688,72.456697,46.629003,18.672099
1772265423177,11.397137,-28.818847,-33.335614,17.030440
1772265423181,17.594077,-23.615486,-34.261749,12.980786
1772265423185,21.743872,54.011681,22.988247,9.887212
1772265423189,10.273000,24.756654,0.451250,10.268236
1772265423193,-3.534739,-73.492309,-70.348598,11.149226
1772265423197,-9.039469,-49.268840,-47.561263,5.286618
1772265423201,-12.828704,19.910945,1.905913,-6.151897
1772265423204,-17.443258,-37.726830,-46.223761,-10.542676
1772265423208,-13.516967,-83.358131,-79.063699,-2.358050
1772265423212,1.596437,33.234077,20.211847,4.109286
1772265423216,7.208747,92.941463,71.164419,-2.603270
1772265423220,-3.160151,21.839440,12.189281,-15.472638
1772265423224,-14.867956,69.396798,49.986476,-27.624250
1772265423228,-22.040549,219.232300,166.913100,-38.445139
1772265423232,-21.507834,222.616375,164.414161,-46.027128
1772265423236,-20.200557,13.818697,-0.505649,-47.227816
1772265423240,-27.866325,-209.345685,-170.606131,-40.021489
1772265423244,-35.955378,-196.746959,-153.782132,-31.415512
1772265423247,-24.839071,-35.014737,-31.115442,-29.494982
1772265423251,10.560823,45.316905,19.793514,-31.724600
1772265423255,35.615679,36.045427,7.208334,-28.613871
1772265423259,25.102702,224.381954,159.817422,-10.895153
1772265423263,31.545682,251.385939,172.728951,-5.755578
1772265423267,34.013587,125.553154,65.564080,-2.555517
1772265423271,30.639514,83.563682,25.276539,-0.529515
1772265423275,22.978837,171.752845,93.729623,2.525278
1772265423279,19.606013,215.621069,132.230222,11.132379
1772265423283,29.420430,119.283389,62.122547,18.578979
1772265423287,43.428447,-27.355003,-55.049274,19.242544
1772265423290,42.794956,-143.321666,-156.174217,20.014356
1772265423294,24.584724,-185.447597,-189.084468,27.051204
1772265423298,10.956286,-51.292105,-75.134488,35.659518
1772265423302,24.847470,192.772393,116.758831,33.714190
1772265423306,38.897184,215.485717,122.927166,26.110003
1772265423310,25.542620,162.574471,78.478427,32.079303
1772265423314,10.644820,149.427510,71.491455,38.891521
1772265423318,9.358531,216.530198,126.753910,39.470932
1772265423322,23.894153,214.133836,126.005999,34.321318
1772265423326,34.713088,112.543091,50.306869,27.447130
1772265423329,27.697535,-36.005449,-64.718127,22.933514
1772265423333,17.003088,-124.095475,-129.479675,20.993520
1772265423337,15.721564,-164.741751,-155.395637,19.609030
1772265423341,22.367712,-202.591513,-182.010386,17.742010
1772265423345,24.626101,-119.151261,-112.353305,16.060437
1772265423349,16.728368,25.109966,1.485065,16.042362
1772265423353,10.508085,98.633918,60.739314,17.677426
1772265423357,8.580963,154.609129,111.284182,18.698630
1772265423361,4.423886,214.423889,162.807762,17.574076
1772265423365,-1.023249,209.980009,158.356736,17.293930
1772265423369,-0.609808,124.726025,84.983527,19.378042
1772265423372,9.247184,46.874184,23.384387,20.253838
1772265423376,12.542715,-14.082939,-19.966626,18.884977
1772265423380,-1.522183,-133.068010,-115.396008,17.714187
1772265423384,-16.358513,-289.910472,-238.261145,16.790395
1772265423388,-12.448605,-296.691292,-237.995375,12.351817
1772265423392,10.846728,-43.818140,-37.695195,3.791958
1772265423396,21.676751,140.947339,99.369226,-1.272739
1772265423400,-6.543753,47.100919,25.534639,4.110365
1772265423404,-9.629817,34.213017,17.392540,6.321392
1772265423408,-10.457204,110.232613,79.786169,7.458916
1772265423411,-14.029663,100.068996,72.644523,3.698558
1772265423415,-18.976100,-16.758312,-14.773404,2.150308
1772265423419,-18.534236,-95.271357,-72.127252,4.381740
1772265423423,-8.843435,-39.637559,-21.924890,1.964351
1772265423427,-0.493017,-15.968204,-0.703621,-6.206320
1772265423431,-4.202912,-168.075982,-122.666005,-12.366548
1772265423435,-23.177547,-293.794004,-217.018781,-14.194539
1772265423439,-42.971537,-200.763429,-137.873513,-14.537012
1772265423443,-32.439083,81.207535,87.468752,-14.490138
1772265423447,-11.008655,120.934722,111.747406,-19.823459
1772265423451,-19.402921,55.408138,53.367946,-19.194438
1772265423454,-28.655018,82.239592,74.119383,-14.132060
1772265423458,-25.347425,85.404698,79.651861,-7.404488
1772265423462,-9.383596,55.487590,58.514557,0.415467
1772265423466,3.397932,49.858213,54.542336,7.482871
1772265423470,-0.646091,-50.088089,-27.649866,10.540945
1772265423474,-13.664592,-237.106924,-171.190733,7.990557
1772265423478,-21.088858,-241.271406,-166.665457,3.296860
1772265423482,-16.034881,17.957164,38.246201,-1.600978
1772265423486,-9.401762,196.894975,171.214790,-6.268224
1772265423490,-10.883292,111.966883,94.453606,-6.570779
1772265423494,-11.417142,23.119644,23.739773,-3.885256
1772265423497,-7.576364,59.722048,53.697614,-2.455001
1772265423501,-4.470229,93.766608,80.101146,0.798613
1772265423505,-5.047570,50.320720,48.767010,6.652393
1772265423509,-6.455441,-25.900393,-10.306858,6.876840
1772265423513,-3.747281,-60.847264,-34.390366,-1.655340
1772265423517,-4.619397,-150.062542,-100.900426,-8.161102
1772265423521,-16.314319,-296.210484,-216.250241,-3.792444
1772265423525,-32.335298,-247.742670,-173.516691,4.433287
1772265423529,-33.721305,-56.205020,-18.033586,4.819860
1772265423533,-8.272325,49.325949,66.815325,-2.223981
1772265423536,15.352068,89.429722,94.640520,-4.300202
1772265423540,-2.299112,151.280273,139.851659,8.632703
1772265423544,-4.095440,123.467841,110.095485,2.009588
1772265423548,-2.864361,29.721140,30.492242,-5.337055
1772265423552,0.783553,-4.059338,4.163081,-10.459384
1772265423556,-1.374240,82.143908,74.615790,-11.046158
1772265423560,-8.669122,124.022093,103.794720,-6.958179
1772265423564,-9.172261,10.134340,12.129784,-5.426524
1772265423568,-4.459567,-162.705567,-126.196717,-11.092249
1772265423572,-5.706382,-195.813356,-158.701917,-16.855940
1772265423576,-18.929037,-134.287734,-113.572601,-10.644265
1772265423579,-29.188554,-162.337670,-133.027743,2.890769
1772265423583,-14.640525,-138.159709,-104.755591,2.219654
1772265423587,6.927193,-42.602670,-33.804975,-12.167217
1772265423591,-2.478097,26.788883,13.472915,-11.578724
1772265423595,-16.789421,13.274610,2.180832,-5.707692
1772265423599,-22.463934,59.891237,41.690486,0.902097
1772265423603,-14.430258,150.489153,117.526606,0.910578
1772265423607,-6.896581,124.811031,100.844136,-4.294124
1772265423611,-11.390461,-43.258060,-32.789727,-4.722932
1772265423615,-18.253525,-152.369480,-120.333071,2.014433
1772265423618,-17.932547,-123.952349,-100.241318,7.096505
1772265423622,-8.584542,-130.102527,-101.929356,4.850925
1772265423626,-1.973231,-209.348239,-156.931273,-1.097793
1772265423630,-5.028413,-143.186075,-102.993721,-5.632460
1772265423634,-6.746165,37.849674,38.793790,-5.268717
1772265423638,-4.636914,70.438827,60.550064,-1.000139
1772265423642,-2.928533,16.784780,15.265333,1.563826
1772265423646,-3.827607,62.235734,50.039216,1.862324
1772265423650,-2.915971,153.344041,115.839465,1.813353
1772265423654,6.944310,157.492612,117.706767,-1.362258
1772265423658,14.599433,-17.775514,-16.469846,-6.180600
1772265423661,7.898059,-223.051732,-173.107572,-4.109722
1772265423665,-6.589581,-229.999214,-173.452677,6.735412
1772265423669,-10.415842,-113.339212,-82.365900,13.470658
1772265423673,5.387298,55.298620,52.018532,4.072822
1772265423677,17.397915,153.808295,129.348546,-10.692709
1772265423681,-14.337500,169.492842,138.375158,-5.156413
1772265423685,-13.763137,172.466232,140.979795,-0.730556
1772265423689,-4.780735,114.483868,95.884487,6.026470
1772265423693,2.693737,60.077842,52.872619,10.083751
1772265423697,-4.118757,18.456377,20.651544,9.206144
1772265423701,-12.364073,-2.712267,4.393764,3.551186
1772265423704,-0.575779,16.652861,25.948866,-3.740634
1772265423708,20.630562,21.275662,31.410946,-9.182683
1772265423712,26.849748,-94.235886,-66.192648,-12.772579
1772265423716,6.873424,-267.033574,-206.433765,-11.555267
1772265423720,-16.041055,-215.277940,-164.225315,-0.648147
1772265423724,-12.035894,73.582438,68.748861,5.313650
1772265423728,-1.296688,144.174653,115.022725,-12.520796
1772265423732,-19.420607,63.538609,43.244526,-22.814892
1772265423736,-26.893069,60.989558,39.591500,-17.609784
1772265423740,-24.688147,121.520211,87.105190,-8.778988
1772265423743,-13.175690,152.870099,117.164765,-7.262665
1772265423747,-1.908353,50.675657,40.451314,-6.711884
1772265423751,2.176613,-138.428852,-109.727872,1.528917
1772265423755,0.437838,-234.173530,-180.868166,11.982651
1772265423759,-4.656839,-257.494167,-193.076804,13.387735
1772265423763,-2.676221,-189.186811,-134.718376,6.110043
1772265423767,2.921217,-19.166241,-5.514101,-0.814165
1772265423771,-0.118027,60.344593,45.574958,-3.481562
1772265423775,-8.009434,56.479232,40.940577,0.554882
1772265423779,-7.848551,123.628104,96.328654,10.132921
1772265423783,1.020676,232.175780,184.131052,16.965607
1772265423786,3.178614,201.978941,162.072748,19.408514
1772265423790,0.170780,42.373329,32.793769,18.480955
1772265423794,5.327848,-33.905317,-30.813707,12.115667
1772265423798,10.988638,-39.869908,-40.670570,5.362394
1772265423802,5.023729,-139.929284,-123.515043,5.283192
1772265423806,-10.904420,-305.631070,-252.542833,9.023893
1772265423810,-18.837897,-294.343421,-240.082443,7.423575
1772265423814,-3.506507,-57.719044,-50.894244,-3.260102
1772265423818,12.657755,120.276763,80.201652,-14.066103
1772265423822,-14.727950,26.328611,-0.194762,-6.506472
1772265423825,-15.727829,87.835271,47.510376,-8.386774
1772265423829,-3.503705,183.049155,119.377040,-9.050899
1772265423833,11.047950,151.702049,95.218883,-8.635080
1772265423837,11.713667,22.546629,-3.359631,-5.999229
1772265423841,2.098806,-55.473109,-64.727934,-1.705683
1772265423845,-1.328633,-37.719878,-47.445519,1.154596
1772265423849,5.654300,-71.743852,-72.776038,-0.625326
1772265423853,13.335545,-150.756184,-136.749264,-3.080659
1772265423857,5.183036,-178.619023,-160.346318,3.506615
1772265423861,-16.698588,-156.807601,-142.020700,15.248530
1772265423865,-23.369774,12.497736,-0.475709,16.514155
1772265423868,-13.108685,22.714703,3.694010,0.720261
1772265423872,-3.427742,96.626366,60.371338,5.498318
1772265423876,6.173341,152.085183,103.211246,12.889074
1772265423880,5.487858,111.267222,69.771262,11.599762
1772265423884,2.662264,74.308802,41.558364,-1.150876
1772265423888,1.358144,44.855299,18.454902,-10.817234
1772265423892,-3.767542,-90.274813,-89.000289,-4.845987
1772265423896,-7.589453,-227.622897,-194.850425,7.830756
1772265423900,4.637657,-137.027970,-120.676219,14.147373
1772265423904,22.974856,51.702939,27.930624,5.589970
1772265423908,7.338116,22.277666,-4.225469,-17.649102
1772265423911,-38.748773,-76.516409,-93.366953,-31.883665
1772265423915,-55.924253,89.723987,42.712830,-34.434216
1772265423919,-45.756365,114.788310,59.401628,-39.000806
1772265423923,-34.641175,27.171493,-11.948442,-37.636754
1772265423927,-44.031861,-30.562093,-54.592878,-30.282190
1772265423931,-62.745210,16.963335,-13.793557,-17.840446
1772265423935,-65.769054,99.938860,56.416166,-7.525734
1772265423939,-59.524771,55.286498,22.444222,-4.174272
1772265423943,-54.976458,-59.110107,-65.884540,-7.078583
1772265423947,-43.560032,-72.549939,-74.968934,-7.235478
1772265423950,-28.706568,-63.073829,-71.198636,1.453451
1772265423954,-24.571151,-119.638923,-113.940828,10.547186
1772265423958,-28.372630,-86.050084,-83.572086,12.438243
1772265423962,-26.901058,87.828406,51.597493,12.225276
1772265423966,-19.886280,137.788150,84.310514,14.496006
1772265423970,-13.324235,12.823829,-23.619863,15.091211
1772265423974,-8.173718,-14.453140,-47.084042,12.271331
1772265423978,-8.886957,75.236595,28.100341,9.441370
1772265423982,-13.953020,78.121290,35.433066,9.222045
1772265423986,-10.979982,-59.232775,-67.591567,9.280037
1772265423990,7.132653,-185.866338,-167.877166,6.156435
1772265423993,27.886200,-115.974245,-114.144341,5.671140
1772265423997,28.220382,5.985657,-15.225964,13.060639
1772265424001,9.872821,-14.548106,-26.113289,22.354812
1772265424005,4.185416,-26.739858,-31.158621,24.106217
1772265424009,18.800705,62.987005,28.390767,15.954494
1772265424013,24.706155,109.946059,67.843628,15.793986
1772265424017,24.730824,53.561667,25.885695,11.188841
1772265424021,20.129195,76.353135,40.600031,5.984341
1772265424025,23.470053,180.739871,121.112784,5.914378
1772265424029,26.928730,165.932647,110.791752,10.471927
1772265424033,26.280201,-28.674440,-36.820549,17.195841
1772265424036,24.691212,-179.906277,-146.361160,23.661335
1772265424040,29.594007,-160.857521,-130.040530,25.663929
1772265424044,46.376289,-112.298129,-97.181803,21.291575
1772265424048,52.987834,-81.645714,-74.257030,13.650896
1772265424052,34.197194,14.818986,11.184474,12.437100
1772265424056,30.507336,191.456401,152.626243,14.644572
1772265424060,22.775596,184.016233,141.835377,23.517590
1772265424064,24.566439,166.188929,126.431287,24.353343
1772265424068,28.905829,177.854351,135.827623,18.896401
1772265424072,30.868295,101.080993,72.097663,13.101830
1772265424075,32.138869,-7.055648,-10.916182,10.102272
1772265424079,33.970504,-57.498373,-43.428268,7.002039
1772265424083,39.376450,-70.614682,-45.510919,0.155649
1772265424087,43.310355,-145.599492,-98.875559,-5.220900
1772265424091,47.023306,-243.861145,-175.891658,-5.420401
1772265424095,53.400173,-140.431926,-96.779744,-5.180242
1772265424099,50.827958,87.254417,77.245423,-5.159620
1772265424103,40.506680,164.880247,137.809043,5.475910
1772265424107,34.958649,144.740975,132.993677,26.146198
1772265424111,35.910103,194.262256,181.414564,30.035097
1772265424115,32.178703,243.788713,213.759141,4.953029
1772265424118,19.149064,171.230685,141.865521,-24.827699
1772265424122,2.963001,63.662475,70.569639,-25.480801
1772265424126,13.135113,-12.714546,24.383059,-21.999087
1772265424130,20.461671,-78.981026,-25.762384,-20.099931
1772265424134,29.907834,-157.479286,-94.383847,-23.286000
1772265424138,32.348012,-161.010771,-102.482549,-25.590141
1772265424142,25.848412,2.202780,26.338475,-22.848078
1772265424146,23.240246,128.102674,125.952348,-16.360178
1772265424150,26.644857,84.208952,87.174444,-9.965649
1772265424154,27.011201,91.953063,91.343450,-5.336617
1772265424157,17.909648,193.235820,170.323181,-1.278251
1772265424161,8.469226,175.256671,152.762536,-1.651305
1772265424165,5.934435,43.128619,45.568190,-9.257416
1772265424169,9.042599,-39.997832,-22.430068,-16.528313
1772265424173,15.055020,-35.261006,-13.892023,-15.522738
1772265424177,14.884684,-63.326277,-26.802647,-7.770193
1772265424181,13.905419,-185.080976,-124.323098,-5.524473
1772265424185,21.161116,-232.566870,-174.720409,-15.834034
1772265424189,23.377617,-124.343036,-99.899825,-24.311977
1772265424193,10.185972,59.822819,55.544462,-17.238767
1772265424197,11.350848,115.916670,103.484996,-14.555799
1772265424200,17.730759,162.206482,139.884920,-10.219823
1772265424204,20.992542,205.692617,174.470100,-3.901078
1772265424208,15.394646,104.839187,94.928025,-1.927917
1772265424212,10.699330,-29.217573,-11.991918,-3.245163
1772265424216,15.594508,-54.188244,-33.693713,-5.471390
1772265424220,20.447182,-55.433645,-40.182895,-9.617618
1772265424224,19.296080,-122.193285,-90.158954,-10.813198
1772265424228,11.699888,-156.062610,-100.921149,-4.379829
1772265424232,4.059772,-82.414910,-32.836643,2.267286
1772265424236,8.805144,14.487458,32.883148,2.838848
1772265424240,22.664827,112.844114,87.511853,-2.013978
1772265424122,2.963001,63.662475,70.569639,-25.480801
1772265424126,13.135113,-12.714546,24.383059,-21.999087
1772265424130,20.461671,-78.981026,-25.762384,-20.099931
1772265424134,29.907834,-157.479286,-94.383847,-23.286000
1772265424138,32.348012,-161.010771,-102.482549,-25.590141
1772265424142,25.848412,2.202780,26.338475,-22.848078
1772265424146,23.240246,128.102674,125.952348,-16.360178
1772265424150,26.644857,84.208952,87.174444,-9.965649
1772265424154,27.011201,91.953063,91.343450,-5.336617
1772265424157,17.909648,193.235820,170.323181,-1.278251
1772265424161,8.469226,175.256671,152.762536,-1.651305
1772265424165,5.934435,43.128619,45.568190,-9.257416
1772265424169,9.042599,-39.997832,-22.430068,-16.528313
1772265424173,15.055020,-35.261006,-13.892023,-15.522738
1772265424177,14.884684,-63.326277,-26.802647,-7.770193
1772265424181,13.905419,-185.080976,-124.323098,-5.524473
1772265424185,21.161116,-232.566870,-174.720409,-15.834034
1772265424189,23.377617,-124.343036,-99.899825,-24.311977
1772265424193,10.185972,59.822819,55.544462,-17.238767
1772265424197,11.350848,115.916670,103.484996,-14.555799
1772265424200,17.730759,162.206482,139.884920,-10.219823
1772265424204,20.992542,205.692617,174.470100,-3.901078
1772265424208,15.394646,104.839187,94.928025,-1.927917
1772265424212,10.699330,-29.217573,-11.991918,-3.245163
1772265424216,15.594508,-54.188244,-33.693713,-5.471390
1772265424220,20.447182,-55.433645,-40.182895,-9.617618
1772265424224,19.296080,-122.193285,-90.158954,-10.813198
1772265424228,11.699888,-156.062610,-100.921149,-4.379829
1772265424232,4.059772,-82.414910,-32.836643,2.267286
1772265424236,8.805144,14.487458,32.883148,2.838848
1772265424240,22.664827,112.844114,87.511853,-2.013978
1772265424243,14.858147,146.043244,117.970854,0.594261
1772265424247,9.392146,142.458839,118.854261,2.913722
1772265424251,8.782294,116.817908,97.016754,8.634266
1772265424255,11.401154,80.416099,63.186582,12.307770
1772265424259,9.430594,85.593790,64.286626,13.752589
1772265424263,1.914857,97.025068,81.464780,15.022102
1772265424267,-8.317306,-11.698916,7.441113,15.276541
1772265424271,-10.528064,-202.171449,-144.180502,12.158790
1772265424275,-4.923093,-202.651625,-156.545171,6.218940
1772265424279,-4.981494,-21.698762,-26.735070,1.291415
1772265424282,-0.433937,78.005387,46.871880,-1.157419
1772265424286,13.068634,74.474455,48.107714,-1.081886
1772265424290,18.586511,95.120631,69.513291,0.507446
1772265424294,13.032633,137.479612,105.216141,1.478400
1772265424298,3.185840,118.743529,89.638145,4.478736
1772265424302,0.632205,104.308831,79.611126,9.729640
1772265424306,2.362086,164.714651,129.365087,6.822667
1772265424310,-5.810843,147.767859,112.880990,-8.917316
1772265424314,-13.701652,-25.322853,-19.544106,-23.062917
1772265424318,-13.579493,-197.183011,-140.583175,-22.366604
1772265424322,-10.780916,-188.418225,-127.054250,-16.218277
1772265424325,-0.142765,-64.221936,-36.999597,-17.013445
1772265424329,13.632338,-78.043569,-57.163005,-18.792683
1772265424333,7.580696,-146.218962,-102.076740,-11.962258
1772265424337,0.086996,67.475012,71.315647,-4.186873
1772265424341,3.351821,137.339674,126.965544,-8.771333
1772265424345,7.577427,62.118057,63.913584,-19.519743
1772265424349,5.159957,46.432332,45.062935,-26.909540
1772265424353,0.898527,146.367750,119.826271,-24.921270
1772265424357,2.268751,160.010080,126.894268,-22.402598
1772265424361,6.792102,-45.471328,-41.634347,-26.279047
1772265424364,12.728794,-236.044078,-189.925078,-26.979962
1772265424368,12.329309,-154.509804,-110.739492,-13.618976
1772265424372,0.151191,25.856217,43.835696,1.887077
1772265424376,-7.931166,33.249903,40.383003,2.652501
1772265424380,-3.474695,-65.242978,-63.938950,-8.065571
1772265424384,-17.561906,-22.840205,-26.587216,-3.976594
1772265424388,-26.936787,89.251182,69.002902,6.580984
1772265424392,-20.879167,117.744823,93.961795,10.198409
1772265424396,-11.264252,153.625495,114.693154,5.076472
1772265424400,-4.514200,141.905600,92.976479,-2.221625
1772265424404,2.574146,54.796464,24.150591,-5.184025
1772265424407,3.469982,-40.681736,-38.907544,3.780451
1772265424411,0.903576,-40.094455,-29.473405,17.855729
1772265424415,5.149735,14.158090,11.895484,23.707719
1772265424419,10.310628,-87.772520,-75.927914,22.302051
1772265424423,7.105152,-181.769572,-149.113940,18.207561
1772265424427,-4.239046,-18.217847,-14.911697,14.225593
1772265424431,-12.480105,151.719208,114.416559,10.598023
1772265424435,-14.299224,138.125512,97.270860,6.402185
1772265424439,-11.264857,92.824459,61.283356,6.741010
1772265424443,7.502796,121.675150,88.144653,10.940250
1772265424447,26.230742,147.716301,110.100464,10.263873
1772265424450,22.758692,82.085760,55.533491,3.754849
1772265424454,13.731100,-13.636502,-12.276201,0.695414
1772265424458,12.413904,-41.429823,-17.981268,8.207749
1772265424462,10.222945,-67.798421,-34.906750,15.185094
1772265424466,0.627931,-154.429164,-118.379473,6.649289
1772265424470,-10.300407,-132.714399,-117.874993,-8.811292
1772265424474,-17.289618,19.186234,9.599312,-7.568879
1772265424478,-30.838920,110.794948,88.192875,2.464105
1772265424482,-44.411354,114.909356,90.992380,1.065682
1772265424486,-34.362961,151.924315,120.640389,-0.193090
1772265424489,-6.373193,118.560331,93.291158,1.446505
1772265424493,12.856790,18.477580,15.511155,4.207219
1772265424497,15.260404,-30.550856,-24.531606,7.527424
1772265424501,11.740778,-46.601825,-45.053769,10.327519
1772265424505,4.615617,-81.437977,-70.999436,12.083459
1772265424509,-8.041560,-186.218163,-136.480937,17.353071
1772265424513,-16.050939,-241.418449,-162.932212,26.061675
1772265424517,-12.148701,-89.818831,-48.977694,26.053262
1772265424521,-1.651729,88.585668,63.838997,9.167904
1772265424525,-10.417102,96.561112,72.546302,0.240882
1772265424529,-33.942837,97.928729,85.475970,1.771289
1772265424532,-50.663441,148.858354,129.327244,2.647152
1772265424536,-42.361176,146.003808,118.195990,1.591041
1772265424540,-24.308246,73.326071,52.014157,-0.740004
1772265424544,-7.897237,38.868269,30.560054,-3.070012
1772265424548,2.456947,6.066668,17.171638,2.567374
1772265424552,2.884055,-130.684671,-87.411812,11.561490
1772265424556,-1.340156,-268.985826,-204.059461,10.756901
1772265424560,-13.448206,-198.863932,-158.849344,2.878001
1772265424564,-25.056230,-1.391410,-6.871607,0.759094
1772265424568,-19.465285,62.843885,43.946546,6.916902
1772265424572,-5.804886,54.723907,36.738254,12.170022
1772265424575,-1.560259,137.891302,98.449140,11.302931
1772265424579,-4.406720,193.883907,134.874506,7.766991
1772265424583,-4.473198,96.781717,55.219410,5.285872
1772265424587,-6.352069,-56.513895,-64.560307,3.157612
1772265424591,-15.659461,-129.033862,-122.667248,0.135774
1772265424595,-26.003207,-149.345255,-134.421335,1.437806
1772265424599,-31.969334,-239.190762,-193.874589,7.606653
1772265424603,-34.512310,-319.529860,-247.414173,7.219243
1772265424607,-26.695755,-251.484938,-198.147929,-2.343487
1772265424611,-4.731812,-127.348546,-117.631528,-10.849568
1772265424614,6.588804,9.819317,-12.891319,-10.230876
1772265424618,-4.548081,97.964349,66.419412,-7.121333
1772265424622,-8.389477,188.827446,140.509769,-8.659282
1772265424626,-9.139830,217.596729,160.001820,-6.153455
1772265424630,-14.756924,112.249142,74.077833,-2.181707
1772265424634,-22.136822,9.258906,-3.199999,-1.577894
1772265424638,-16.513405,-33.445850,-34.688588,-1.438128
1772265424642,-2.482820,-114.087172,-102.693918,-3.625642
1772265424646,-0.643401,-201.495437,-170.847235,-9.461256
1772265424650,-11.595821,-163.173748,-130.925836,-10.569708
1772265424654,-21.788570,-66.335630,-42.987152,-6.855814
1772265424657,-22.692869,-68.948140,-45.145797,-6.988344
1772265424661,-4.732968,-64.475241,-58.938313,-12.082951
1772265424665,12.000563,11.540004,0.334983,-9.184742
1772265424669,10.746952,74.650247,57.223346,-2.099229
1772265424673,-5.281715,67.188137,55.958332,-0.756586
1772265424677,-12.812488,23.361716,15.721419,-6.920729
1772265424681,-4.981206,22.358432,2.812866,-11.570268
1772265424685,-7.296874,31.082627,7.923242,-8.455114
1772265424689,-18.052671,-58.817879,-53.072142,-1.908731
1772265424693,-17.488222,-181.566223,-140.013613,0.738938
1772265424696,-8.335622,-161.788090,-122.552787,0.346207
1772265424700,0.960055,-85.626236,-68.241477,0.152720
1772265424704,1.620262,-117.988096,-92.962715,-0.291531
1772265424708,-4.796745,-146.937989,-107.907455,-0.078925
1772265424712,-4.270952,-66.557692,-43.050629,-0.043970
1772265424716,-4.479786,-22.992261,-12.282880,-3.060277
1772265424720,-13.237348,-62.407253,-43.622339,-6.237456
1772265424724,-13.718840,-12.249918,-1.261486,-5.621113
1772265424728,-3.000621,118.723982,97.738536,-5.262502
1772265424732,7.814933,101.108056,73.248571,-11.683472
1772265424736,7.817822,-109.662926,-92.392200,-18.317741
1772265424739,-4.939453,-255.916657,-192.198851,-12.936548
1772265424743,-10.788524,-143.491733,-90.954050,-2.082232
1772265424747,-3.167286,2.130865,14.612268,-1.546250
1772265424751,4.950573,-53.867974,-50.002066,-10.497612
1772265424755,-0.875121,-130.936213,-111.146253,-12.638112
1772265424759,-16.481088,98.381689,84.189885,0.603516
1772265424763,-12.079042,119.424695,98.522167,4.491074
1772265424767,0.091926,10.960672,12.653637,6.775113
1772265424771,4.548336,21.889731,25.633816,10.356895
1772265424775,1.309586,127.060895,116.449108,14.601564
1772265424779,0.021328,114.487141,107.049099,15.429571
1772265424782,4.601544,-66.340293,-41.509292,10.083044
1772265424786,9.931153,-236.746721,-179.563152,4.153808
1772265424790,4.485568,-236.593846,-175.884419,6.083237
1772265424794,-5.353733,-117.706142,-67.709210,13.622051
1772265424798,-5.346890,27.067028,53.825992,14.712940
1772265424802,8.046285,102.855083,95.125947,1.122127
1772265424806,12.030560,98.631160,79.657657,-10.156345
1772265424810,2.737878,127.180974,106.529197,-4.839155
1772265424814,-4.504217,156.870928,136.995562,3.774310
1772265424818,-2.561486,227.343030,194.375316,6.923764
1772265424821,7.219926,208.434063,175.135938,4.976585
1772265424825,13.870168,64.847468,57.976440,4.572209
1772265424829,7.001526,-84.265431,-58.894044,11.241271
1772265424833,-3.680402,-117.639285,-79.587518,17.825171
1772265424837,-5.153351,-135.626756,-92.392977,11.287998
1772265424841,0.311875,-228.706374,-171.158538,-1.769001
1772265424845,1.754185,-187.468733,-141.009766,-1.378542
1772265424849,-4.748010,8.763507,11.942066,9.562900
1772265424853,-7.899763,121.781968,97.611602,12.531462
1772265424857,-4.790513,133.558184,106.326661,6.205321
1772265424861,-2.415185,138.928586,110.331596,2.194019
1772265424864,-2.881671,131.855102,103.468547,4.086980
1772265424868,-7.994521,89.667092,66.211751,5.550407
1772265424872,-11.845519,37.518828,20.595813,2.472445
1772265424876,-11.698541,-16.246576,-20.353898,-1.936660
1772265424880,-13.587843,-96.534480,-76.187618,-1.179848
1772265424884,-13.423057,-221.618616,-166.766881,4.537945
1772265424888,-8.122911,-299.892338,-234.258275,2.578649
1772265424892,-3.047172,-181.517355,-159.765477,-10.564988
1772265424896,-5.970775,8.866088,-15.473381,-14.077874
1772265424900,-10.700611,66.346749,48.106419,2.881968
1772265424903,-10.372690,148.791535,117.497444,7.626796
1772265424907,-7.834804,287.173447,229.705695,8.787903
1772265424911,-6.412181,252.875732,201.383859,9.626104
1772265424915,-6.164261,64.142709,55.875616,9.086574
1772265424919,0.073343,-42.130834,-23.979558,5.801568
1772265424923,12.178439,-9.383162,-3.178715,-0.632350
1772265424927,13.573951,-6.274804,-9.251814,-8.464426
1772265424931,6.422893,-112.319891,-88.983117,-14.031976
1772265424935,6.936409,-150.339631,-100.530811,-8.405706
1772265424939,13.300451,-50.218433,-17.335916,4.384888
1772265424943,17.535704,75.639749,58.803091,5.885333
1772265424946,13.042130,46.475380,24.203821,1.768726
1772265424950,5.969497,46.608725,35.369641,10.022773
1772265424954,-0.937262,123.634639,102.801348,16.477224
1772265424958,2.443266,115.012924,89.620988,11.921566
1772265424962,11.367789,64.567030,39.699988,0.793589
1772265424966,9.350220,51.508492,26.528549,-7.743941
1772265424970,-1.960068,-58.734483,-58.526175,-8.691355
1772265424974,-4.252611,-257.420628,-207.248080,-4.195970
1772265424978,5.700312,-276.189952,-214.917522,-0.416807
1772265424982,12.201073,-42.131777,-35.300470,-3.552596
1772265424986,6.594466,142.554123,100.265872,-6.361839
1772265424989,1.878986,111.692220,73.285505,1.090328
1772265424993,2.569236,80.657813,54.730528,4.529009
1772265424997,-2.239091,136.458900,98.420834,-5.146698
1772265425001,-12.445175,137.812073,93.395510,-11.134131
1772265425005,-20.631090,68.642874,41.707186,-8.328458
1772265425009,-20.578676,11.583437,0.291606,-9.487970
1772265425013,-11.812480,3.965169,-6.567743,-15.687171
1772265425017,-4.668445,-49.290917,-47.153411,-15.570113
1772265425021,-7.816966,-172.844402,-139.837639,-6.910344
1772265425025,-14.799035,-147.441253,-110.632007,1.608506
1772265425028,-13.529584,-26.215826,-17.367918,-0.018597
1772265425032,-1.802185,-47.122612,-54.207264,-10.273048
1772265425036,7.708224,-36.404747,-52.949774,-9.187554
1772265425040,-4.575791,150.615945,118.223649,9.665090
1772265425044,-5.710265,167.575068,133.617104,12.469067
1772265425048,-0.319183,58.869382,41.643160,10.171625
1772265425052,9.130020,-4.188797,-8.935987,5.665862
1772265425056,6.836768,72.160868,58.728500,5.444829
1772265425060,-4.499103,85.692191,70.512812,6.785639
1772265425064,-4.469079,-66.926450,-54.840148,4.362834
1772265425068,0.070559,-205.989923,-167.992095,0.462033
1772265425071,-3.143915,-141.197248,-113.691308,-0.797868
1772265425075,-10.500177,30.770071,36.159555,3.903636
1772265425079,-17.275090,20.121468,36.561514,9.549808
1772265425083,-9.878816,-104.906621,-74.275250,2.140769
1772265425087,4.431579,-66.051868,-57.171010,-11.812776
1772265425091,8.261725,77.259159,61.775927,-8.011212
1772265425095,7.824451,82.645765,73.714730,-0.205187
1772265425099,6.660226,50.591538,44.633334,-3.388607
1772265425103,9.739500,53.983573,36.118055,-14.613285
1772265425107,11.343337,24.634350,9.724544,-20.018240
1772265425111,5.879657,-63.234058,-49.732500,-15.480941
1772265425114,0.081290,-113.542664,-74.342080,-6.261788
1772265425118,0.634466,-115.798911,-72.142753,1.906145
1772265425122,9.766953,-171.663575,-119.708691,8.066992
1772265425126,19.013751,-239.833834,-170.656522,13.075203
1772265425130,16.535554,-139.381482,-87.363553,16.692609
1772265425134,8.338207,53.524922,62.395500,16.184295
1772265425138,0.536741,92.344673,85.961345,9.138607
1772265425142,-6.078215,49.040502,50.140571,3.929464
1772265425146,-3.193080,115.030470,106.204858,7.021302
1772265425150,8.696384,222.723909,186.946316,9.860895
1772265425153,19.121583,202.810528,162.518211,6.937275
1772265425157,21.352791,16.696849,17.130272,5.824879
1772265425161,16.506120,-137.743451,-90.167346,12.445105
1772265425165,10.454671,-91.939753,-40.340420,17.707715
1772265425169,7.189131,-35.743440,-4.007176,12.514850
1772265425173,10.649212,-76.123574,-56.425040,5.449205
1772265425177,14.001599,-80.992375,-66.196748,1.913789
1772265425181,0.927347,80.374216,75.296089,3.663557
1772265425185,-0.055668,160.512901,135.015315,-1.856636
1772265425189,-3.431214,156.283031,131.560883,1.319223
1772265425193,-5.614314,148.631636,125.287286,2.912985
1772265425196,-4.912992,128.146232,111.043186,-1.556530
1772265425200,-1.693892,72.797305,70.228234,-6.946097
1772265425204,5.846675,1.435119,16.386861,-10.946008
1772265425208,12.136129,-76.966516,-47.249072,-16.080119
1772265425212,10.279548,-173.544825,-124.552278,-25.767100
1772265425216,-0.542810,-213.720880,-143.812267,-32.864598
1772265425220,-14.453783,-49.039289,2.766754,-28.520878
1772265425224,-14.917448,180.669822,180.074290,-26.988255
1772265425228,-3.147573,124.228831,112.191913,-35.541415
1772265425232,-0.195343,-9.090232,5.545383,-15.954847
1772265425235,-0.565548,29.482198,51.319020,18.656667
1772265425239,-0.295550,156.905766,158.180695,29.100194
1772265425243,7.952171,172.032188,164.145929,16.169119
1772265425247,18.073564,60.444045,69.520717,5.007606
1772265425251,12.204386,-98.320935,-60.696860,-7.585800
1772265425255,-3.839802,-189.976747,-129.082129,-26.260843
1772265425259,-9.464832,-228.329828,-152.689716,-34.371811
1772265425263,-6.201299,-194.511725,-124.303819,-25.047763
1772265425267,-5.975849,-19.297503,13.848964,-12.349965
1772265425271,-7.809248,119.491094,118.648387,-16.798294
1772265425275,-5.102735,135.977811,126.898353,-26.548315
1772265425278,1.683710,181.552516,163.445499,-16.873224
1772265425282,6.073114,236.743250,207.338964,-5.881714
1772265425286,5.174926,141.734560,129.710554,-5.674000
1772265425290,6.173769,-40.311763,-18.133873,-2.271600
1772265425294,10.607325,-96.934973,-65.020674,-2.478182
1772265425298,8.875452,-48.478063,-26.233473,-13.962283
1772265425302,0.889287,-77.886691,-43.092569,-18.728551
1772265425306,-6.323541,-190.664895,-119.508541,-9.271004
1772265425310,-3.466298,-198.871789,-124.786956,-1.935348
1772265425314,10.968465,-52.480194,-26.454435,-3.681698
1772265425318,14.955772,69.501081,49.780190,-9.818450
1772265425321,-2.452971,26.747636,24.690289,3.043720
1772265425325,-3.359987,58.924732,47.560175,-1.408733
1772265425329,-0.987409,185.864736,150.110340,0.270141
1772265425333,4.465295,170.901392,141.074094,7.670852
1772265425337,6.124001,33.743392,38.058158,11.373060
1772265425341,3.958192,-43.623817,-17.028581,11.171058
1772265425345,7.487822,-42.392457,-14.254166,7.389280
1772265425349,14.435474,-113.690074,-78.158211,-1.834381
1772265425353,16.416510,-206.558455,-154.689067,-6.292328
1772265425357,9.396805,-167.055799,-112.232910,3.489742
1772265425360,1.844748,-68.175168,-27.743930,17.412958
1772265425364,9.803732,63.989595,63.797107,15.797427
1772265425368,12.969325,89.219627,75.015036,12.871263
1772265425372,20.088943,149.182452,116.947083,13.031053
1772265425376,24.615841,140.160965,102.482705,7.653951
1772265425380,17.759407,38.041780,19.403047,3.087749
1772265425384,4.569081,-6.070363,-10.091389,0.205719
1772265425388,-4.608930,18.586805,13.880637,-0.713950
1772265425392,-3.201154,-64.211566,-52.708959,-0.305893
1772265425396,2.841403,-229.240842,-183.626002,-3.032111
1772265425400,4.056132,-242.553597,-195.702324,-4.694848
1772265425403,4.266566,-109.306998,-94.410347,2.363179
1772265425407,6.266142,-19.424784,-26.746850,13.442780
1772265425411,7.420836,58.923998,35.710709,20.096249
1772265425415,6.320339,207.985980,157.381068,16.707856
1772265425419,2.519734,291.766801,221.221773,5.470744
1772265425423,0.617191,215.406280,152.783182,-5.501291
1772265425427,-0.451507,101.697820,57.866385,-14.208008
1772265425431,-9.427228,91.256895,51.705551,-20.516279
1772265425435,-22.304968,140.506137,101.805534,-13.689675
1772265425439,-22.089471,65.808806,49.607888,6.273060
1772265425442,-3.827387,-102.032928,-93.611339,16.577796
1772265425446,-1.677937,-104.135052,-97.669207,17.833305
1772265425450,-3.586449,-16.207481,-29.733297,19.604236
1772265425454,1.175923,-62.015240,-69.925963,15.484963
1772265425458,6.393108,-119.522638,-117.902366,7.920114
1772265425462,8.154290,-35.056503,-51.535997,1.789342
1772265425466,8.866469,29.663234,-3.236124,-2.519975
1772265425470,8.001485,-43.627829,-69.689999,-4.490663
1772265425474,7.210980,-25.973000,-59.938002,-5.841190
1772265425478,7.878906,182.433997,110.623519,-5.995020
1772265425482,9.598872,298.615749,210.419888,-2.991436
1772265425485,15.127041,113.909119,63.118037,0.742651
1772265425489,23.334767,-165.589425,-172.066853,-0.908616
1772265425493,23.648680,-185.942713,-195.773084,-6.174135
1772265425497,8.900548,-19.843144,-50.473812,-3.690613
1772265425501,-8.295040,40.926723,18.869390,4.585558
1772265425505,-8.854142,17.223252,4.121530,4.905382
1772265424243,14.858147,146.043244,117.970854,0.594261
1772265424247,9.392146,142.458839,118.854261,2.913722
1772265424251,8.782294,116.817908,97.016754,8.634266
1772265424255,11.401154,80.416099,63.186582,12.307770
1772265424259,9.430594,85.593790,64.286626,13.752589
1772265424263,1.914857,97.025068,81.464780,15.022102
1772265424267,-8.317306,-11.698916,7.441113,15.276541
1772265424271,-10.528064,-202.171449,-144.180502,12.158790
1772265424275,-4.923093,-202.651625,-156.545171,6.218940
1772265424279,-4.981494,-21.698762,-26.735070,1.291415
1772265424282,-0.433937,78.005387,46.871880,-1.157419
1772265424286,13.068634,74.474455,48.107714,-1.081886
1772265424290,18.586511,95.120631,69.513291,0.507446
1772265424294,13.032633,137.479612,105.216141,1.478400
1772265424298,3.185840,118.743529,89.638145,4.478736
1772265424302,0.632205,104.308831,79.611126,9.729640
1772265424306,2.362086,164.714651,129.365087,6.822667
1772265424310,-5.810843,147.767859,112.880990,-8.917316
1772265424314,-13.701652,-25.322853,-19.544106,-23.062917
1772265424318,-13.579493,-197.183011,-140.583175,-22.366604
1772265424322,-10.780916,-188.418225,-127.054250,-16.218277
1772265424325,-0.142765,-64.221936,-36.999597,-17.013445
1772265424329,13.632338,-78.043569,-57.163005,-18.792683
1772265424333,7.580696,-146.218962,-102.076740,-11.962258
1772265424337,0.086996,67.475012,71.315647,-4.186873
1772265424341,3.351821,137.339674,126.965544,-8.771333
1772265424345,7.577427,62.118057,63.913584,-19.519743
1772265424349,5.159957,46.432332,45.062935,-26.909540
1772265424353,0.898527,146.367750,119.826271,-24.921270
1772265424357,2.268751,160.010080,126.894268,-22.402598
1772265424361,6.792102,-45.471328,-41.634347,-26.279047
1772265424364,12.728794,-236.044078,-189.925078,-26.979962
1772265424368,12.329309,-154.509804,-110.739492,-13.618976
1772265424372,0.151191,25.856217,43.835696,1.887077
1772265424376,-7.931166,33.249903,40.383003,2.652501
1772265424380,-3.474695,-65.242978,-63.938950,-8.065571
1772265424384,-17.561906,-22.840205,-26.587216,-3.976594
1772265424388,-26.936787,89.251182,69.002902,6.580984
1772265424392,-20.879167,117.744823,93.961795,10.198409
1772265424396,-11.264252,153.625495,114.693154,5.076472
1772265424400,-4.514200,141.905600,92.976479,-2.221625
1772265424404,2.574146,54.796464,24.150591,-5.184025
1772265424407,3.469982,-40.681736,-38.907544,3.780451
1772265424411,0.903576,-40.094455,-29.473405,17.855729
1772265424415,5.149735,14.158090,11.895484,23.707719
1772265424419,10.310628,-87.772520,-75.927914,22.302051
1772265424423,7.105152,-181.769572,-149.113940,18.207561
1772265424427,-4.239046,-18.217847,-14.911697,14.225593
1772265424431,-12.480105,151.719208,114.416559,10.598023
1772265424435,-14.299224,138.125512,97.270860,6.402185
1772265424439,-11.264857,92.824459,61.283356,6.741010
1772265424443,7.502796,121.675150,88.144653,10.940250
1772265424447,26.230742,147.716301,110.100464,10.263873
1772265424450,22.758692,82.085760,55.533491,3.754849
1772265424454,13.731100,-13.636502,-12.276201,0.695414
1772265424458,12.413904,-41.429823,-17.981268,8.207749
1772265424462,10.222945,-67.798421,-34.906750,15.185094
1772265424466,0.627931,-154.429164,-118.379473,6.649289
1772265424470,-10.300407,-132.714399,-117.874993,-8.811292
1772265424474,-17.289618,19.186234,9.599312,-7.568879
1772265424478,-30.838920,110.794948,88.192875,2.464105
1772265424482,-44.411354,114.909356,90.992380,1.065682
1772265424486,-34.362961,151.924315,120.640389,-0.193090
1772265424489,-6.373193,118.560331,93.291158,1.446505
1772265424493,12.856790,18.477580,15.511155,4.207219
1772265424497,15.260404,-30.550856,-24.531606,7.527424
1772265424501,11.740778,-46.601825,-45.053769,10.327519
1772265424505,4.615617,-81.437977,-70.999436,12.083459
1772265424509,-8.041560,-186.218163,-136.480937,17.353071
1772265424513,-16.050939,-241.418449,-162.932212,26.061675
1772265424517,-12.148701,-89.818831,-48.977694,26.053262
1772265424521,-1.651729,88.585668,63.838997,9.167904
1772265424525,-10.417102,96.561112,72.546302,0.240882
1772265424529,-33.942837,97.928729,85.475970,1.771289
1772265424532,-50.663441,148.858354,129.327244,2.647152
1772265424536,-42.361176,146.003808,118.195990,1.591041
1772265424540,-24.308246,73.326071,52.014157,-0.740004
1772265424544,-7.897237,38.868269,30.560054,-3.070012
1772265424548,2.456947,6.066668,17.171638,2.567374
1772265424552,2.884055,-130.684671,-87.411812,11.561490
1772265424556,-1.340156,-268.985826,-204.059461,10.756901
1772265424560,-13.448206,-198.863932,-158.849344,2.878001
1772265424564,-25.056230,-1.391410,-6.871607,0.759094
1772265424568,-19.465285,62.843885,43.946546,6.916902
1772265424572,-5.804886,54.723907,36.738254,12.170022
1772265424575,-1.560259,137.891302,98.449140,11.302931
1772265424579,-4.406720,193.883907,134.874506,7.766991
1772265424583,-4.473198,96.781717,55.219410,5.285872
1772265424587,-6.352069,-56.513895,-64.560307,3.157612
1772265424591,-15.659461,-129.033862,-122.667248,0.135774
1772265424595,-26.003207,-149.345255,-134.421335,1.437806
1772265424599,-31.969334,-239.190762,-193.874589,7.606653
1772265424603,-34.512310,-319.529860,-247.414173,7.219243
1772265424607,-26.695755,-251.484938,-198.147929,-2.343487
1772265424611,-4.731812,-127.348546,-117.631528,-10.849568
1772265424614,6.588804,9.819317,-12.891319,-10.230876
1772265424618,-4.548081,97.964349,66.419412,-7.121333
1772265424622,-8.389477,188.827446,140.509769,-8.659282
1772265424626,-9.139830,217.596729,160.001820,-6.153455
1772265424630,-14.756924,112.249142,74.077833,-2.181707
1772265424634,-22.136822,9.258906,-3.199999,-1.577894
1772265424638,-16.513405,-33.445850,-34.688588,-1.438128
1772265424642,-2.482820,-114.087172,-102.693918,-3.625642
1772265424646,-0.643401,-201.495437,-170.847235,-9.461256
1772265424650,-11.595821,-163.173748,-130.925836,-10.569708
1772265424654,-21.788570,-66.335630,-42.987152,-6.855814
1772265424657,-22.692869,-68.948140,-45.145797,-6.988344
1772265424661,-4.732968,-64.475241,-58.938313,-12.082951
1772265424665,12.000563,11.540004,0.334983,-9.184742
1772265424669,10.746952,74.650247,57.223346,-2.099229
1772265424673,-5.281715,67.188137,55.958332,-0.756586
1772265424677,-12.812488,23.361716,15.721419,-6.920729
1772265424681,-4.981206,22.358432,2.812866,-11.570268
1772265424685,-7.296874,31.082627,7.923242,-8.455114
1772265424689,-18.052671,-58.817879,-53.072142,-1.908731
1772265424693,-17.488222,-181.566223,-140.013613,0.738938
1772265424696,-8.335622,-161.788090,-122.552787,0.346207
1772265424700,0.960055,-85.626236,-68.241477,0.152720
1772265424704,1.620262,-117.988096,-92.962715,-0.291531
1772265424708,-4.796745,-146.937989,-107.907455,-0.078925
1772265424712,-4.270952,-66.557692,-43.050629,-0.043970
1772265424716,-4.479786,-22.992261,-12.282880,-3.060277
1772265424720,-13.237348,-62.407253,-43.622339,-6.237456
1772265424724,-13.718840,-12.249918,-1.261486,-5.621113
1772265424728,-3.000621,118.723982,97.738536,-5.262502
1772265424732,7.814933,101.108056,73.248571,-11.683472
1772265424736,7.817822,-109.662926,-92.392200,-18.317741
1772265424739,-4.939453,-255.916657,-192.198851,-12.936548
1772265424743,-10.788524,-143.491733,-90.954050,-2.082232
1772265424747,-3.167286,2.130865,14.612268,-1.546250
1772265424751,4.950573,-53.867974,-50.002066,-10.497612
1772265424755,-0.875121,-130.936213,-111.146253,-12.638112
1772265424759,-16.481088,98.381689,84.189885,0.603516
1772265424763,-12.079042,119.424695,98.522167,4.491074
1772265424767,0.091926,10.960672,12.653637,6.775113
1772265424771,4.548336,21.889731,25.633816,10.356895
1772265424775,1.309586,127.060895,116.449108,14.601564
1772265424779,0.021328,114.487141,107.049099,15.429571
1772265424782,4.601544,-66.340293,-41.509292,10.083044
1772265424786,9.931153,-236.746721,-179.563152,4.153808
1772265424790,4.485568,-236.593846,-175.884419,6.083237
1772265424794,-5.353733,-117.706142,-67.709210,13.622051
1772265424798,-5.346890,27.067028,53.825992,14.712940
1772265424802,8.046285,102.855083,95.125947,1.122127
1772265424806,12.030560,98.631160,79.657657,-10.156345
1772265424810,2.737878,127.180974,106.529197,-4.839155
1772265424814,-4.504217,156.870928,136.995562,3.774310
1772265424818,-2.561486,227.343030,194.375316,6.923764
1772265424821,7.219926,208.434063,175.135938,4.976585
1772265424825,13.870168,64.847468,57.976440,4.572209
1772265424829,7.001526,-84.265431,-58.894044,11.241271
1772265424833,-3.680402,-117.639285,-79.587518,17.825171
1772265424837,-5.153351,-135.626756,-92.392977,11.287998
1772265424841,0.311875,-228.706374,-171.158538,-1.769001
1772265424845,1.754185,-187.468733,-141.009766,-1.378542
1772265424849,-4.748010,8.763507,11.942066,9.562900
1772265424853,-7.899763,121.781968,97.611602,12.531462
1772265424857,-4.790513,133.558184,106.326661,6.205321
1772265424861,-2.415185,138.928586,110.331596,2.194019
1772265424864,-2.881671,131.855102,103.468547,4.086980
1772265424868,-7.994521,89.667092,66.211751,5.550407
1772265424872,-11.845519,37.518828,20.595813,2.472445
1772265424876,-11.698541,-16.246576,-20.353898,-1.936660
1772265424880,-13.587843,-96.534480,-76.187618,-1.179848
1772265424884,-13.423057,-221.618616,-166.766881,4.537945
1772265424888,-8.122911,-299.892338,-234.258275,2.578649
1772265424892,-3.047172,-181.517355,-159.765477,-10.564988
1772265424896,-5.970775,8.866088,-15.473381,-14.077874
1772265424900,-10.700611,66.346749,48.106419,2.881968
1772265424903,-10.372690,148.791535,117.497444,7.626796
1772265424907,-7.834804,287.173447,229.705695,8.787903
1772265424911,-6.412181,252.875732,201.383859,9.626104
1772265424915,-6.164261,64.142709,55.875616,9.086574
1772265424919,0.073343,-42.130834,-23.979558,5.801568
1772265424923,12.178439,-9.383162,-3.178715,-0.632350
1772265424927,13.573951,-6.274804,-9.251814,-8.464426
1772265424931,6.422893,-112.319891,-88.983117,-14.031976
1772265424935,6.936409,-150.339631,-100.530811,-8.405706
1772265424939,13.300451,-50.218433,-17.335916,4.384888
1772265424943,17.535704,75.639749,58.803091,5.885333
1772265424946,13.042130,46.475380,24.203821,1.768726
1772265424950,5.969497,46.608725,35.369641,10.022773
1772265424954,-0.937262,123.634639,102.801348,16.477224
1772265424958,2.443266,115.012924,89.620988,11.921566
1772265424962,11.367789,64.567030,39.699988,0.793589
1772265424966,9.350220,51.508492,26.528549,-7.743941
1772265424970,-1.960068,-58.734483,-58.526175,-8.691355
1772265424974,-4.252611,-257.420628,-207.248080,-4.195970
1772265424978,5.700312,-276.189952,-214.917522,-0.416807
1772265424982,12.201073,-42.131777,-35.300470,-3.552596
1772265424986,6.594466,142.554123,100.265872,-6.361839
1772265424989,1.878986,111.692220,73.285505,1.090328
1772265424993,2.569236,80.657813,54.730528,4.529009
1772265424997,-2.239091,136.458900,98.420834,-5.146698
1772265425001,-12.445175,137.812073,93.395510,-11.134131
1772265425005,-20.631090,68.642874,41.707186,-8.328458
1772265425009,-20.578676,11.583437,0.291606,-9.487970
1772265425013,-11.812480,3.965169,-6.567743,-15.687171
1772265425017,-4.668445,-49.290917,-47.153411,-15.570113
1772265425021,-7.816966,-172.844402,-139.837639,-6.910344
1772265425025,-14.799035,-147.441253,-110.632007,1.608506
1772265425028,-13.529584,-26.215826,-17.367918,-0.018597
1772265425032,-1.802185,-47.122612,-54.207264,-10.273048
1772265425036,7.708224,-36.404747,-52.949774,-9.187554
1772265425040,-4.575791,150.615945,118.223649,9.665090
1772265425044,-5.710265,167.575068,133.617104,12.469067
1772265425048,-0.319183,58.869382,41.643160,10.171625
1772265425052,9.130020,-4.188797,-8.935987,5.665862
1772265425056,6.836768,72.160868,58.728500,5.444829
1772265425060,-4.499103,85.692191,70.512812,6.785639
1772265425064,-4.469079,-66.926450,-54.840148,4.362834
1772265425068,0.070559,-205.989923,-167.992095,0.462033
1772265425071,-3.143915,-141.197248,-113.691308,-0.797868
1772265425075,-10.500177,30.770071,36.159555,3.903636
1772265425079,-17.275090,20.121468,36.561514,9.549808
1772265425083,-9.878816,-104.906621,-74.275250,2.140769
1772265425087,4.431579,-66.051868,-57.171010,-11.812776
1772265425091,8.261725,77.259159,61.775927,-8.011212
1772265425095,7.824451,82.645765,73.714730,-0.205187
1772265425099,6.660226,50.591538,44.633334,-3.388607
1772265425103,9.739500,53.983573,36.118055,-14.613285
1772265425107,11.343337,24.634350,9.724544,-20.018240
1772265425111,5.879657,-63.234058,-49.732500,-15.480941
1772265425114,0.081290,-113.542664,-74.342080,-6.261788
1772265425118,0.634466,-115.798911,-72.142753,1.906145
1772265425122,9.766953,-171.663575,-119.708691,8.066992
1772265425126,19.013751,-239.833834,-170.656522,13.075203
1772265425130,16.535554,-139.381482,-87.363553,16.692609
1772265425134,8.338207,53.524922,62.395500,16.184295
1772265425138,0.536741,92.344673,85.961345,9.138607
1772265425142,-6.078215,49.040502,50.140571,3.929464
1772265425146,-3.193080,115.030470,106.204858,7.021302
1772265425150,8.696384,222.723909,186.946316,9.860895
1772265425153,19.121583,202.810528,162.518211,6.937275
1772265425157,21.352791,16.696849,17.130272,5.824879
1772265425161,16.506120,-137.743451,-90.167346,12.445105
1772265425165,10.454671,-91.939753,-40.340420,17.707715
1772265425169,7.189131,-35.743440,-4.007176,12.514850
1772265425173,10.649212,-76.123574,-56.425040,5.449205
1772265425177,14.001599,-80.992375,-66.196748,1.913789
1772265425181,0.927347,80.374216,75.296089,3.663557
1772265425185,-0.055668,160.512901,135.015315,-1.856636
1772265425189,-3.431214,156.283031,131.560883,1.319223
1772265425193,-5.614314,148.631636,125.287286,2.912985
1772265425196,-4.912992,128.146232,111.043186,-1.556530
1772265425200,-1.693892,72.797305,70.228234,-6.946097
1772265425204,5.846675,1.435119,16.386861,-10.946008
1772265425208,12.136129,-76.966516,-47.249072,-16.080119
1772265425212,10.279548,-173.544825,-124.552278,-25.767100
1772265425216,-0.542810,-213.720880,-143.812267,-32.864598
1772265425220,-14.453783,-49.039289,2.766754,-28.520878
