timestamp,TP9_uV,AF7_uV,AF8_uV,TP10_uV
1772268234630,8.908086,337.332987,377.393632,22.353916
1772268234634,6.704817,437.794339,474.102488,20.886713
1772268234638,3.595033,330.401323,378.548177,24.251843
1772268234642,2.998031,235.428773,296.807489,27.802877
1772268234646,4.063971,287.223808,350.781214,26.247098
1772268234650,3.130469,377.053950,441.703312,21.968781
1772268234653,-0.944624,355.662670,430.156809,16.515535
1772268234657,-4.780386,231.490285,312.696522,11.231285
1772268234661,-1.549306,186.232847,260.028504,8.653211
1772268234665,8.293197,194.937329,269.989073,8.459345
1772268234669,14.065860,89.863083,193.475146,7.241442
1772268234673,13.044854,28.303826,143.949981,5.558760
1772268234677,12.193286,148.797255,234.224096,5.594175
1772268234681,14.083899,256.079957,316.654502,6.228931
1772268234685,16.660943,246.765065,308.393773,9.230688
1772268234689,17.722888,262.388460,321.734032,14.908955
1772268234692,17.303649,353.654393,400.068910,19.172435
1772268234696,17.520913,363.250822,407.871036,19.148656
1772268234700,16.924654,219.916970,282.439008,11.683413
1772268234704,13.347756,45.606938,124.368047,-1.171231
1772268234708,8.698705,-33.003774,44.516199,-9.965743
1772268234712,4.650132,3.276419,73.177645,-10.121698
1772268234716,1.213316,140.258420,195.233998,-10.617733
1772268234720,-2.588203,296.900518,326.111728,-21.892484
1772268234724,-7.282978,230.060417,247.585189,-20.882110
1772268234728,-9.017883,163.643906,195.539377,-13.607690
1772268234732,-10.481723,42.003377,96.122955,-9.980704
1772268234735,-12.397197,39.035060,85.498729,-10.016843
1772268234739,-13.756930,78.837155,105.691491,-10.150043
1772268234743,-15.269895,-24.856978,19.525643,-8.330922
1772268234747,-15.988695,-198.467866,-117.275504,-3.707233
1772268234751,-15.435399,-173.766109,-94.470565,-3.780837
1772268234755,-15.014036,-38.180976,12.418635,-11.615089
1772268234759,-16.082494,-68.822728,-24.558974,-18.106730
1772268234763,-16.691495,-136.959717,-91.606947,-13.359694
1772268234767,-15.493239,-26.428140,0.928054,-0.307384
1772268234724,-7.282978,230.060417,247.585189,-20.882110
1772268234728,-9.017883,163.643906,195.539377,-13.607690
1772268234732,-10.481723,42.003377,96.122955,-9.980704
1772268234735,-12.397197,39.035060,85.498729,-10.016843
1772268234739,-13.756930,78.837155,105.691491,-10.150043
1772268234743,-15.269895,-24.856978,19.525643,-8.330922
1772268234747,-15.988695,-198.467866,-117.275504,-3.707233
1772268234751,-15.435399,-173.766109,-94.470565,-3.780837
1772268234755,-15.014036,-38.180976,12.418635,-11.615089
1772268234759,-16.082494,-68.822728,-24.558974,-18.106730
1772268234763,-16.691495,-136.959717,-91.606947,-13.359694
1772268234767,-15.493239,-26.428140,0.928054,-0.307384
1772268234817,-5.763057,57.355426,46.265182,-5.861427
1772268234821,-5.650648,48.143836,38.759503,-5.370864
1772268234825,-7.879053,130.180236,106.735481,-6.601235
1772268234829,-9.636260,145.774518,118.664258,-6.645418
1772268234833,-9.632934,58.276268,52.951415,-5.406822
1772268234837,-7.973602,-38.619002,-21.874723,-6.071008
1772268234841,-8.723248,-47.350059,-31.119551,-11.548805
1772268234845,-13.503454,-80.527643,-69.319037,-16.683808
1772268234849,-18.413479,-276.375312,-243.827627,-14.112310
1772268234853,-18.230928,-386.072795,-331.113675,-6.798205
1772268234857,-10.756240,-185.838667,-149.007143,-3.119203
1772268234860,-2.876511,123.961057,117.766333,-9.936374
1772268234817,-5.763057,57.355426,46.265182,-5.861427
1772268234821,-5.650648,48.143836,38.759503,-5.370864
1772268234825,-7.879053,130.180236,106.735481,-6.601235
1772268234829,-9.636260,145.774518,118.664258,-6.645418
1772268234833,-9.632934,58.276268,52.951415,-5.406822
1772268234837,-7.973602,-38.619002,-21.874723,-6.071008
1772268234841,-8.723248,-47.350059,-31.119551,-11.548805
1772268234845,-13.503454,-80.527643,-69.319037,-16.683808
1772268234849,-18.413479,-276.375312,-243.827627,-14.112310
1772268234853,-18.230928,-386.072795,-331.113675,-6.798205
1772268234857,-10.756240,-185.838667,-149.007143,-3.119203
1772268234860,-2.876511,123.961057,117.766333,-9.936374
1772268234864,-1.985162,1.091030,-2.501575,-10.534350
1772268234868,3.119423,74.580861,49.600149,-7.430622
1772268234872,8.570514,200.298969,154.314044,-2.379438
1772268234876,11.719919,171.382419,141.137733,-1.180685
1772268234880,10.155089,-6.226679,-1.313897,-2.537813
1772268234884,8.388416,-128.288254,-107.817382,1.163376
1772268234888,11.293417,-110.458098,-96.416173,10.288929
1772268234892,14.249586,9.585598,12.572649,14.267091
1772268234896,11.289294,100.026103,94.435432,9.049258
1772268234899,4.488312,5.630537,4.269706,5.043651
1772268234903,1.382728,-252.125823,-227.697495,11.390803
1772268234907,5.237059,-440.692197,-389.324402,21.164794
1772268234864,-1.985162,1.091030,-2.501575,-10.534350
1772268234868,3.119423,74.580861,49.600149,-7.430622
1772268234872,8.570514,200.298969,154.314044,-2.379438
1772268234876,11.719919,171.382419,141.137733,-1.180685
1772268234880,10.155089,-6.226679,-1.313897,-2.537813
1772268234884,8.388416,-128.288254,-107.817382,1.163376
1772268234888,11.293417,-110.458098,-96.416173,10.288929
1772268234892,14.249586,9.585598,12.572649,14.267091
1772268234896,11.289294,100.026103,94.435432,9.049258
1772268234899,4.488312,5.630537,4.269706,5.043651
1772268234903,1.382728,-252.125823,-227.697495,11.390803
1772268234907,5.237059,-440.692197,-389.324402,21.164794
1772268234911,4.157386,-421.479900,-362.292878,7.370556
1772268234915,1.428137,-260.362717,-228.126895,-0.437475
1772268234919,2.805209,32.445156,11.077763,-8.221777
1772268234923,6.581533,130.005567,89.573345,-10.892950
1772268234927,9.457568,87.037152,54.536241,-9.490253
1772268234931,9.667080,36.503600,13.293679,-10.365652
1772268234935,6.866789,-99.243721,-103.713354,-12.944807
1772268234939,3.299115,-291.385296,-270.730804,-12.517977
1772268234942,3.368408,-273.352068,-254.367627,-8.684838
1772268234946,5.479756,-40.991973,-51.232373,-9.718369
1772268234950,0.953867,86.310994,60.922690,-23.266078
1772268234954,-6.918066,-22.833839,-40.166777,-31.512213
1772268234911,4.157386,-421.479900,-362.292878,7.370556
1772268234915,1.428137,-260.362717,-228.126895,-0.437475
1772268234919,2.805209,32.445156,11.077763,-8.221777
1772268234923,6.581533,130.005567,89.573345,-10.892950
1772268234927,9.457568,87.037152,54.536241,-9.490253
1772268234931,9.667080,36.503600,13.293679,-10.365652
1772268234935,6.866789,-99.243721,-103.713354,-12.944807
1772268234939,3.299115,-291.385296,-270.730804,-12.517977
1772268234942,3.368408,-273.352068,-254.367627,-8.684838
1772268234946,5.479756,-40.991973,-51.232373,-9.718369
1772268234950,0.953867,86.310994,60.922690,-23.266078
1772268234954,-6.918066,-22.833839,-40.166777,-31.512213
1772268234911,4.157386,-421.479900,-362.292878,7.370556
1772268234915,1.428137,-260.362717,-228.126895,-0.437475
1772268234919,2.805209,32.445156,11.077763,-8.221777
1772268234923,6.581533,130.005567,89.573345,-10.892950
1772268234927,9.457568,87.037152,54.536241,-9.490253
1772268234931,9.667080,36.503600,13.293679,-10.365652
1772268234935,6.866789,-99.243721,-103.713354,-12.944807
1772268234939,3.299115,-291.385296,-270.730804,-12.517977
1772268234942,3.368408,-273.352068,-254.367627,-8.684838
1772268234946,5.479756,-40.991973,-51.232373,-9.718369
1772268234950,0.953867,86.310994,60.922690,-23.266078
1772268234954,-6.918066,-22.833839,-40.166777,-31.512213
1772268234911,4.157386,-421.479900,-362.292878,7.370556
1772268234915,1.428137,-260.362717,-228.126895,-0.437475
1772268234919,2.805209,32.445156,11.077763,-8.221777
1772268234923,6.581533,130.005567,89.573345,-10.892950
1772268234927,9.457568,87.037152,54.536241,-9.490253
1772268234931,9.667080,36.503600,13.293679,-10.365652
1772268234935,6.866789,-99.243721,-103.713354,-12.944807
1772268234939,3.299115,-291.385296,-270.730804,-12.517977
1772268234942,3.368408,-273.352068,-254.367627,-8.684838
1772268234946,5.479756,-40.991973,-51.232373,-9.718369
1772268234950,0.953867,86.310994,60.922690,-23.266078
1772268234954,-6.918066,-22.833839,-40.166777,-31.512213
1772268235005,-3.356268,13.124188,-23.249477,5.182332
1772268235009,-2.700910,15.359140,-24.247069,1.393290
1772268235013,-1.847499,-57.338537,-80.496932,-2.468084
1772268235017,0.079110,-136.714029,-142.784046,-3.926586
1772268235021,2.315175,-107.248662,-120.435431,-4.990490
1772268235024,2.923363,-56.036934,-85.263942,-3.938152
1772268235028,5.463511,-152.894613,-168.060532,3.738995
1772268235032,13.490482,-244.221003,-231.988833,7.222630
1772268235036,17.833522,-122.762803,-121.736928,-3.164278
1772268235040,10.033776,12.740933,-14.666525,-13.861921
1772268235044,-0.107168,-122.696247,-141.071986,-8.089656
1772268235048,-2.104455,-306.155228,-300.509837,7.925686
1772268235005,-3.356268,13.124188,-23.249477,5.182332
1772268235009,-2.700910,15.359140,-24.247069,1.393290
1772268235013,-1.847499,-57.338537,-80.496932,-2.468084
1772268235017,0.079110,-136.714029,-142.784046,-3.926586
1772268235021,2.315175,-107.248662,-120.435431,-4.990490
1772268235024,2.923363,-56.036934,-85.263942,-3.938152
1772268235028,5.463511,-152.894613,-168.060532,3.738995
1772268235032,13.490482,-244.221003,-231.988833,7.222630
1772268235036,17.833522,-122.762803,-121.736928,-3.164278
1772268235040,10.033776,12.740933,-14.666525,-13.861921
1772268235044,-0.107168,-122.696247,-141.071986,-8.089656
1772268235048,-2.104455,-306.155228,-300.509837,7.925686
1772268234911,4.157386,-421.479900,-362.292878,7.370556
1772268234915,1.428137,-260.362717,-228.126895,-0.437475
1772268234919,2.805209,32.445156,11.077763,-8.221777
1772268234923,6.581533,130.005567,89.573345,-10.892950
1772268234927,9.457568,87.037152,54.536241,-9.490253
1772268234931,9.667080,36.503600,13.293679,-10.365652
1772268234935,6.866789,-99.243721,-103.713354,-12.944807
1772268234939,3.299115,-291.385296,-270.730804,-12.517977
1772268234942,3.368408,-273.352068,-254.367627,-8.684838
1772268234946,5.479756,-40.991973,-51.232373,-9.718369
1772268234950,0.953867,86.310994,60.922690,-23.266078
1772268234954,-6.918066,-22.833839,-40.166777,-31.512213
1772268234911,4.157386,-421.479900,-362.292878,7.370556
1772268234915,1.428137,-260.362717,-228.126895,-0.437475
1772268234919,2.805209,32.445156,11.077763,-8.221777
1772268234923,6.581533,130.005567,89.573345,-10.892950
1772268234927,9.457568,87.037152,54.536241,-9.490253
1772268234931,9.667080,36.503600,13.293679,-10.365652
1772268234935,6.866789,-99.243721,-103.713354,-12.944807
1772268234939,3.299115,-291.385296,-270.730804,-12.517977
1772268234942,3.368408,-273.352068,-254.367627,-8.684838
1772268234946,5.479756,-40.991973,-51.232373,-9.718369
1772268234950,0.953867,86.310994,60.922690,-23.266078
1772268234954,-6.918066,-22.833839,-40.166777,-31.512213
1772268234958,0.175819,-118.813030,-122.490056,-12.791606
1772268234962,2.204946,-97.931762,-105.778058,-2.306749
1772268234966,0.355974,-44.062017,-61.513978,2.194095
1772268234970,-0.732593,-58.507724,-81.617277,2.287707
1772268234974,1.728202,-84.684353,-112.932543,2.298926
1772268234978,5.522832,-91.915108,-116.444864,3.605299
1772268234982,5.890039,-161.392767,-159.783073,0.500590
1772268234985,0.873290,-272.684570,-248.674143,-6.451931
1772268234989,-4.920668,-259.696304,-252.697896,-6.773917
1772268234993,-5.717986,-168.211704,-188.341421,3.007748
1772268234997,-0.875012,-109.340186,-130.891358,12.204855
1772268235001,2.158867,18.679244,-4.165532,8.924332
1772268234958,0.175819,-118.813030,-122.490056,-12.791606
1772268234962,2.204946,-97.931762,-105.778058,-2.306749
1772268234966,0.355974,-44.062017,-61.513978,2.194095
1772268234970,-0.732593,-58.507724,-81.617277,2.287707
1772268234974,1.728202,-84.684353,-112.932543,2.298926
1772268234978,5.522832,-91.915108,-116.444864,3.605299
1772268234982,5.890039,-161.392767,-159.783073,0.500590
1772268234985,0.873290,-272.684570,-248.674143,-6.451931
1772268234989,-4.920668,-259.696304,-252.697896,-6.773917
1772268234993,-5.717986,-168.211704,-188.341421,3.007748
1772268234997,-0.875012,-109.340186,-130.891358,12.204855
1772268235001,2.158867,18.679244,-4.165532,8.924332
1772268235005,-3.356268,13.124188,-23.249477,5.182332
1772268235009,-2.700910,15.359140,-24.247069,1.393290
1772268235013,-1.847499,-57.338537,-80.496932,-2.468084
1772268235017,0.079110,-136.714029,-142.784046,-3.926586
1772268235021,2.315175,-107.248662,-120.435431,-4.990490
1772268235024,2.923363,-56.036934,-85.263942,-3.938152
1772268235028,5.463511,-152.894613,-168.060532,3.738995
1772268235032,13.490482,-244.221003,-231.988833,7.222630
1772268235036,17.833522,-122.762803,-121.736928,-3.164278
1772268235040,10.033776,12.740933,-14.666525,-13.861921
1772268235044,-0.107168,-122.696247,-141.071986,-8.089656
1772268235048,-2.104455,-306.155228,-300.509837,7.925686
1772268235005,-3.356268,13.124188,-23.249477,5.182332
1772268235009,-2.700910,15.359140,-24.247069,1.393290
1772268235013,-1.847499,-57.338537,-80.496932,-2.468084
1772268235017,0.079110,-136.714029,-142.784046,-3.926586
1772268235021,2.315175,-107.248662,-120.435431,-4.990490
1772268235024,2.923363,-56.036934,-85.263942,-3.938152
1772268235028,5.463511,-152.894613,-168.060532,3.738995
1772268235032,13.490482,-244.221003,-231.988833,7.222630
1772268235036,17.833522,-122.762803,-121.736928,-3.164278
1772268235040,10.033776,12.740933,-14.666525,-13.861921
1772268235044,-0.107168,-122.696247,-141.071986,-8.089656
1772268235048,-2.104455,-306.155228,-300.509837,7.925686
1772268235005,-3.356268,13.124188,-23.249477,5.182332
1772268235009,-2.700910,15.359140,-24.247069,1.393290
1772268235013,-1.847499,-57.338537,-80.496932,-2.468084
1772268235017,0.079110,-136.714029,-142.784046,-3.926586
1772268235021,2.315175,-107.248662,-120.435431,-4.990490
1772268235024,2.923363,-56.036934,-85.263942,-3.938152
1772268235028,5.463511,-152.894613,-168.060532,3.738995
1772268235032,13.490482,-244.221003,-231.988833,7.222630
1772268235036,17.833522,-122.762803,-121.736928,-3.164278
1772268235040,10.033776,12.740933,-14.666525,-13.861921
1772268235044,-0.107168,-122.696247,-141.071986,-8.089656
1772268235048,-2.104455,-306.155228,-300.509837,7.925686
1772268235005,-3.356268,13.124188,-23.249477,5.182332
1772268235009,-2.700910,15.359140,-24.247069,1.393290
1772268235013,-1.847499,-57.338537,-80.496932,-2.468084
1772268235017,0.079110,-136.714029,-142.784046,-3.926586
1772268235021,2.315175,-107.248662,-120.435431,-4.990490
1772268235024,2.923363,-56.036934,-85.263942,-3.938152
1772268235028,5.463511,-152.894613,-168.060532,3.738995
1772268235032,13.490482,-244.221003,-231.988833,7.222630
1772268235036,17.833522,-122.762803,-121.736928,-3.164278
1772268235040,10.033776,12.740933,-14.666525,-13.861921
1772268235044,-0.107168,-122.696247,-141.071986,-8.089656
1772268235048,-2.104455,-306.155228,-300.509837,7.925686
1772268235192,-0.596864,-100.044431,-100.876941,3.708671
1772268235196,-3.714379,-48.469816,-62.196274,5.228880
1772268235200,-5.927199,78.683579,36.750110,4.145863
1772268235204,-7.606517,155.995613,104.229943,1.290196
1772268235208,-11.268674,102.710423,69.060445,-2.474356
1772268235212,-16.935647,29.323258,15.665763,-7.112684
1772268235216,-21.515728,-21.917014,-31.665267,-12.365578
1772268235220,-21.112477,-119.404266,-124.656292,-11.900072
1772268235224,-12.278599,-232.095487,-213.927462,-2.278717
1772268235228,-0.547272,-187.766353,-159.200719,5.435953
1772268235231,4.154506,46.689135,47.111449,2.395542
1772268235235,3.771521,169.768452,136.841123,-2.725868
1772268235192,-0.596864,-100.044431,-100.876941,3.708671
1772268235196,-3.714379,-48.469816,-62.196274,5.228880
1772268235200,-5.927199,78.683579,36.750110,4.145863
1772268235204,-7.606517,155.995613,104.229943,1.290196
1772268235208,-11.268674,102.710423,69.060445,-2.474356
1772268235212,-16.935647,29.323258,15.665763,-7.112684
1772268235216,-21.515728,-21.917014,-31.665267,-12.365578
1772268235220,-21.112477,-119.404266,-124.656292,-11.900072
1772268235224,-12.278599,-232.095487,-213.927462,-2.278717
1772268235228,-0.547272,-187.766353,-159.200719,5.435953
1772268235231,4.154506,46.689135,47.111449,2.395542
1772268235235,3.771521,169.768452,136.841123,-2.725868
1772268235239,11.774143,42.412183,20.324129,9.247028
1772268235243,10.398897,44.595634,20.345667,7.245701
1772268235247,6.476505,123.037034,84.095030,4.570778
1772268235251,1.018447,124.377838,87.890956,1.133896
1772268235255,-2.088249,42.870152,23.649384,-1.763308
1772268235259,-0.444825,-8.051423,-18.036615,-1.259411
1772268235263,1.541792,29.666584,18.796891,0.611872
1772268235267,1.397675,31.574732,23.853449,-0.891955
1772268235271,-0.126688,-68.519935,-67.467126,-3.100332
1772268235274,0.667928,-141.056417,-140.352903,4.435746
1772268235278,4.637881,-74.807407,-83.378922,17.911649
1772268235282,3.835877,154.835551,131.543115,20.869508
1772268235239,11.774143,42.412183,20.324129,9.247028
1772268235243,10.398897,44.595634,20.345667,7.245701
1772268235247,6.476505,123.037034,84.095030,4.570778
1772268235251,1.018447,124.377838,87.890956,1.133896
1772268235255,-2.088249,42.870152,23.649384,-1.763308
1772268235259,-0.444825,-8.051423,-18.036615,-1.259411
1772268235263,1.541792,29.666584,18.796891,0.611872
1772268235267,1.397675,31.574732,23.853449,-0.891955
1772268235271,-0.126688,-68.519935,-67.467126,-3.100332
1772268235274,0.667928,-141.056417,-140.352903,4.435746
1772268235278,4.637881,-74.807407,-83.378922,17.911649
1772268235282,3.835877,154.835551,131.543115,20.869508
1772268235239,11.774143,42.412183,20.324129,9.247028
1772268235243,10.398897,44.595634,20.345667,7.245701
1772268235247,6.476505,123.037034,84.095030,4.570778
1772268235251,1.018447,124.377838,87.890956,1.133896
1772268235255,-2.088249,42.870152,23.649384,-1.763308
1772268235259,-0.444825,-8.051423,-18.036615,-1.259411
1772268235263,1.541792,29.666584,18.796891,0.611872
1772268235267,1.397675,31.574732,23.853449,-0.891955
1772268235271,-0.126688,-68.519935,-67.467126,-3.100332
1772268235274,0.667928,-141.056417,-140.352903,4.435746
1772268235278,4.637881,-74.807407,-83.378922,17.911649
1772268235282,3.835877,154.835551,131.543115,20.869508
1772268235239,11.774143,42.412183,20.324129,9.247028
1772268235243,10.398897,44.595634,20.345667,7.245701
1772268235247,6.476505,123.037034,84.095030,4.570778
1772268235251,1.018447,124.377838,87.890956,1.133896
1772268235255,-2.088249,42.870152,23.649384,-1.763308
1772268235259,-0.444825,-8.051423,-18.036615,-1.259411
1772268235263,1.541792,29.666584,18.796891,0.611872
1772268235267,1.397675,31.574732,23.853449,-0.891955
1772268235271,-0.126688,-68.519935,-67.467126,-3.100332
1772268235274,0.667928,-141.056417,-140.352903,4.435746
1772268235278,4.637881,-74.807407,-83.378922,17.911649
1772268235282,3.835877,154.835551,131.543115,20.869508
1772268235380,-8.320212,122.130137,85.292936,-14.200297
1772268235384,-5.594289,103.669279,68.298592,-10.217654
1772268235388,-5.465929,96.083404,79.637830,-12.471621
1772268235392,-10.176650,106.106626,103.645469,-22.878427
1772268235396,-14.398552,133.706534,122.641657,-31.733983
1772268235399,-12.164953,131.156598,110.982420,-30.953049
1772268235403,-7.717331,69.540367,66.194302,-26.591167
1772268235407,-6.644871,18.063990,34.651828,-23.760112
1772268235411,-9.197180,65.714741,78.833904,-20.482329
1772268235415,-9.089952,66.126960,75.978365,-15.201520
1772268235419,-5.807017,-89.909995,-63.744567,-11.347795
1772268235423,-4.588803,-131.311264,-102.323193,-10.450376
1772268235427,-2.754342,24.926906,33.102816,-7.753373
1772268235431,-0.650294,85.393061,92.665996,-3.069991
1772268235435,-1.498035,13.629881,37.394643,0.592356
1772268235438,-3.022439,44.463078,59.879120,3.231174
1772268235442,-3.638138,169.179558,162.124827,4.117918
1772268235446,-3.615693,129.141891,126.757789,4.391074
1772268235450,-2.599997,-86.329441,-52.279184,6.545627
1772268235454,1.947208,-175.226372,-115.792917,9.493851
1772268235458,6.876653,-19.939338,26.234489,9.652895
1772268235462,4.806383,101.483165,132.501230,4.901250
1772268235466,0.213871,-10.230514,22.941986,1.933584
1772268235470,2.709926,-161.613348,-129.501908,9.525778
1772268235380,-8.320212,122.130137,85.292936,-14.200297
1772268235384,-5.594289,103.669279,68.298592,-10.217654
1772268235388,-5.465929,96.083404,79.637830,-12.471621
1772268235392,-10.176650,106.106626,103.645469,-22.878427
1772268235396,-14.398552,133.706534,122.641657,-31.733983
1772268235399,-12.164953,131.156598,110.982420,-30.953049
1772268235403,-7.717331,69.540367,66.194302,-26.591167
1772268235407,-6.644871,18.063990,34.651828,-23.760112
1772268235411,-9.197180,65.714741,78.833904,-20.482329
1772268235415,-9.089952,66.126960,75.978365,-15.201520
1772268235419,-5.807017,-89.909995,-63.744567,-11.347795
1772268235423,-4.588803,-131.311264,-102.323193,-10.450376
1772268235427,-2.754342,24.926906,33.102816,-7.753373
1772268235431,-0.650294,85.393061,92.665996,-3.069991
1772268235435,-1.498035,13.629881,37.394643,0.592356
1772268235438,-3.022439,44.463078,59.879120,3.231174
1772268235442,-3.638138,169.179558,162.124827,4.117918
1772268235446,-3.615693,129.141891,126.757789,4.391074
1772268235450,-2.599997,-86.329441,-52.279184,6.545627
1772268235454,1.947208,-175.226372,-115.792917,9.493851
1772268235458,6.876653,-19.939338,26.234489,9.652895
1772268235462,4.806383,101.483165,132.501230,4.901250
1772268235466,0.213871,-10.230514,22.941986,1.933584
1772268235470,2.709926,-161.613348,-129.501908,9.525778
1772268235380,-8.320212,122.130137,85.292936,-14.200297
1772268235384,-5.594289,103.669279,68.298592,-10.217654
1772268235388,-5.465929,96.083404,79.637830,-12.471621
1772268235392,-10.176650,106.106626,103.645469,-22.878427
1772268235396,-14.398552,133.706534,122.641657,-31.733983
1772268235399,-12.164953,131.156598,110.982420,-30.953049
1772268235403,-7.717331,69.540367,66.194302,-26.591167
1772268235407,-6.644871,18.063990,34.651828,-23.760112
1772268235411,-9.197180,65.714741,78.833904,-20.482329
1772268235415,-9.089952,66.126960,75.978365,-15.201520
1772268235419,-5.807017,-89.909995,-63.744567,-11.347795
1772268235423,-4.588803,-131.311264,-102.323193,-10.450376
1772268235427,-2.754342,24.926906,33.102816,-7.753373
1772268235431,-0.650294,85.393061,92.665996,-3.069991
1772268235435,-1.498035,13.629881,37.394643,0.592356
1772268235438,-3.022439,44.463078,59.879120,3.231174
1772268235442,-3.638138,169.179558,162.124827,4.117918
1772268235446,-3.615693,129.141891,126.757789,4.391074
1772268235450,-2.599997,-86.329441,-52.279184,6.545627
1772268235454,1.947208,-175.226372,-115.792917,9.493851
1772268235458,6.876653,-19.939338,26.234489,9.652895
1772268235462,4.806383,101.483165,132.501230,4.901250
1772268235466,0.213871,-10.230514,22.941986,1.933584
1772268235470,2.709926,-161.613348,-129.501908,9.525778
1772268235521,1.395356,136.695824,118.358118,-12.885720
1772268235524,1.846289,158.088105,139.361048,-13.422802
1772268235528,-2.017601,151.511246,134.007530,-12.409948
1772268235532,-6.229364,110.837765,97.707075,-12.146350
1772268235536,-7.149059,7.945096,6.210609,-10.727364
1772268235540,-4.691397,-66.578432,-59.995564,-8.207118
1772268235544,-3.418843,-35.652098,-27.531929,-9.344575
1772268235548,-6.867947,18.843747,25.177286,-16.040826
1772268235552,-13.732606,-78.000600,-60.575605,-21.597060
1772268235556,-15.288340,-290.592664,-256.417500,-15.616383
1772268235560,-8.100622,-268.167731,-248.567894,-1.836840
1772268235563,-0.505679,54.879233,36.783872,2.067677
1772268235521,1.395356,136.695824,118.358118,-12.885720
1772268235524,1.846289,158.088105,139.361048,-13.422802
1772268235528,-2.017601,151.511246,134.007530,-12.409948
1772268235532,-6.229364,110.837765,97.707075,-12.146350
1772268235536,-7.149059,7.945096,6.210609,-10.727364
1772268235540,-4.691397,-66.578432,-59.995564,-8.207118
1772268235544,-3.418843,-35.652098,-27.531929,-9.344575
1772268235548,-6.867947,18.843747,25.177286,-16.040826
1772268235552,-13.732606,-78.000600,-60.575605,-21.597060
1772268235556,-15.288340,-290.592664,-256.417500,-15.616383
1772268235560,-8.100622,-268.167731,-248.567894,-1.836840
1772268235563,-0.505679,54.879233,36.783872,2.067677
1772268235567,-2.480317,34.391742,12.799516,-5.051863
1772268235571,4.151768,104.087122,73.912773,-0.605573
1772268235575,10.200644,249.129774,202.532345,6.290135
1772268235579,13.710456,253.809340,211.348395,11.121373
1772268235583,10.900859,92.730086,81.961364,8.650165
1772268235587,5.557671,-70.143137,-57.673742,2.681303
1772268235591,2.893293,-102.307368,-96.733852,0.711888
1772268235595,3.472075,-16.123811,-26.801767,2.650035
1772268235599,4.027039,74.630979,63.698317,2.933615
1772268235603,-0.376704,71.450467,76.888428,0.050467
1772268235606,-6.467947,-52.659794,-39.215266,0.718359
1772268235610,-5.738559,-184.104495,-177.508001,10.638179
1772268235567,-2.480317,34.391742,12.799516,-5.051863
1772268235571,4.151768,104.087122,73.912773,-0.605573
1772268235575,10.200644,249.129774,202.532345,6.290135
1772268235579,13.710456,253.809340,211.348395,11.121373
1772268235583,10.900859,92.730086,81.961364,8.650165
1772268235587,5.557671,-70.143137,-57.673742,2.681303
1772268235591,2.893293,-102.307368,-96.733852,0.711888
1772268235595,3.472075,-16.123811,-26.801767,2.650035
1772268235599,4.027039,74.630979,63.698317,2.933615
1772268235603,-0.376704,71.450467,76.888428,0.050467
1772268235606,-6.467947,-52.659794,-39.215266,0.718359
1772268235610,-5.738559,-184.104495,-177.508001,10.638179
1772268235614,2.132835,-161.447428,-126.019480,16.045210
1772268235618,8.456772,-191.477401,-149.573430,19.228448
1772268235622,11.691149,7.228227,12.583446,18.680892
1772268235626,9.380490,97.533770,86.371094,15.946086
1772268235630,3.846562,36.937883,39.463611,11.069253
1772268235634,-3.261647,48.629384,58.008540,2.598647
1772268235638,-10.598628,49.322395,56.515732,-6.912602
1772268235642,-16.566922,-115.502777,-96.127114,-13.791424
1772268235646,-15.497916,-304.771446,-266.755982,-13.736675
1772268235649,-7.008529,-212.769433,-181.734837,-8.519708
1772268235653,-0.873597,115.782445,119.109106,-9.584486
1772268235657,-3.697291,285.983307,264.870203,-18.696971
1772268235614,2.132835,-161.447428,-126.019480,16.045210
1772268235618,8.456772,-191.477401,-149.573430,19.228448
1772268235622,11.691149,7.228227,12.583446,18.680892
1772268235626,9.380490,97.533770,86.371094,15.946086
1772268235630,3.846562,36.937883,39.463611,11.069253
1772268235634,-3.261647,48.629384,58.008540,2.598647
1772268235638,-10.598628,49.322395,56.515732,-6.912602
1772268235642,-16.566922,-115.502777,-96.127114,-13.791424
1772268235646,-15.497916,-304.771446,-266.755982,-13.736675
1772268235649,-7.008529,-212.769433,-181.734837,-8.519708
1772268235653,-0.873597,115.782445,119.109106,-9.584486
1772268235657,-3.697291,285.983307,264.870203,-18.696971
1772268235661,-2.180215,101.323614,87.202481,-7.386290
1772268235665,-1.357260,119.104982,104.510993,-3.806523
1772268235669,0.022427,187.271218,158.417279,-4.196498
1772268235673,-0.703370,165.639024,138.748607,-6.072337
1772268235677,-0.914205,29.585737,19.719811,-4.497771
1772268235681,1.463751,-75.697530,-72.074028,0.257218
1772268235685,3.838577,-92.495041,-76.192660,3.145902
1772268235688,1.621359,-105.702982,-73.184537,1.180659
1772268235692,-3.467372,-99.126899,-66.301867,-1.546089
1772268235696,-7.886420,-121.070574,-105.574427,-2.409840
1772268235700,-14.633345,-202.431799,-191.394286,-6.914145
1772268235704,-20.613854,-96.512718,-85.192065,-17.830924
1772268235661,-2.180215,101.323614,87.202481,-7.386290
1772268235665,-1.357260,119.104982,104.510993,-3.806523
1772268235669,0.022427,187.271218,158.417279,-4.196498
1772268235673,-0.703370,165.639024,138.748607,-6.072337
1772268235677,-0.914205,29.585737,19.719811,-4.497771
1772268235681,1.463751,-75.697530,-72.074028,0.257218
1772268235685,3.838577,-92.495041,-76.192660,3.145902
1772268235688,1.621359,-105.702982,-73.184537,1.180659
1772268235692,-3.467372,-99.126899,-66.301867,-1.546089
1772268235696,-7.886420,-121.070574,-105.574427,-2.409840
1772268235700,-14.633345,-202.431799,-191.394286,-6.914145
1772268235704,-20.613854,-96.512718,-85.192065,-17.830924
1772268235708,-29.384027,-2.369072,-5.018848,-32.975307
1772268235712,-30.047889,98.470980,79.930429,-37.549749
1772268235716,-28.754157,92.737544,77.148941,-40.163066
1772268235720,-26.714632,33.686111,32.388668,-40.852866
1772268235724,-28.520473,80.788587,76.755060,-46.515478
1772268235728,-29.897122,108.145365,96.315079,-50.933522
1772268235731,-26.156926,-20.994416,-15.972263,-42.820651
1772268235735,-18.798894,-123.244985,-98.404291,-28.674173
1772268235739,-10.787629,-1.624836,12.090801,-20.208921
1772268235743,-4.738881,163.995356,159.925175,-16.829452
1772268235747,-0.068302,-1.749534,10.951501,-11.440404
1772268235751,3.495728,-370.478431,-324.392296,-2.223486
1772268235708,-29.384027,-2.369072,-5.018848,-32.975307
1772268235712,-30.047889,98.470980,79.930429,-37.549749
1772268235716,-28.754157,92.737544,77.148941,-40.163066
1772268235720,-26.714632,33.686111,32.388668,-40.852866
1772268235724,-28.520473,80.788587,76.755060,-46.515478
1772268235728,-29.897122,108.145365,96.315079,-50.933522
1772268235731,-26.156926,-20.994416,-15.972263,-42.820651
1772268235735,-18.798894,-123.244985,-98.404291,-28.674173
1772268235739,-10.787629,-1.624836,12.090801,-20.208921
1772268235743,-4.738881,163.995356,159.925175,-16.829452
1772268235747,-0.068302,-1.749534,10.951501,-11.440404
1772268235751,3.495728,-370.478431,-324.392296,-2.223486
1772268235755,7.911247,-202.906512,-161.467727,1.401278
1772268235759,8.506721,-89.947748,-69.868436,1.972802
1772268235763,12.416096,-41.451846,-29.556682,2.126702
1772268235767,15.623889,-5.587359,-5.212682,3.384682
1772268235770,13.169445,97.523262,80.276682,3.923490
1772268235774,6.943558,173.376679,166.761071,1.291210
1772268235778,3.016513,37.763343,79.349997,1.240468
1772268235782,4.008854,-204.885841,-121.767719,7.842710
1772268235786,10.870544,-255.947774,-178.847821,20.084809
1772268235790,19.911619,-96.047633,-39.231340,32.591175
1772268235794,22.731997,35.119357,102.764681,33.333993
1772268235798,16.853360,36.321812,113.847267,21.561664
1772268235755,7.911247,-202.906512,-161.467727,1.401278
1772268235759,8.506721,-89.947748,-69.868436,1.972802
1772268235763,12.416096,-41.451846,-29.556682,2.126702
1772268235767,15.623889,-5.587359,-5.212682,3.384682
1772268235770,13.169445,97.523262,80.276682,3.923490
1772268235774,6.943558,173.376679,166.761071,1.291210
1772268235778,3.016513,37.763343,79.349997,1.240468
1772268235782,4.008854,-204.885841,-121.767719,7.842710
1772268235786,10.870544,-255.947774,-178.847821,20.084809
1772268235790,19.911619,-96.047633,-39.231340,32.591175
1772268235794,22.731997,35.119357,102.764681,33.333993
1772268235798,16.853360,36.321812,113.847267,21.561664
1772268235802,13.750976,-86.883758,-35.702192,23.710424
1772268235806,17.423153,-46.329525,-13.735590,28.257936
1772268235810,20.517004,-24.617146,11.058440,28.126823
1772268235813,18.789037,61.343870,97.825390,23.107540
1772268235817,15.245541,59.766727,91.751025,16.666414
1772268235821,15.046029,-68.925233,-35.062032,16.722984
1772268235825,19.094630,-175.390091,-132.402426,24.488511
1772268235829,21.165289,-148.255018,-105.791209,27.017177
1772268235833,17.549291,-18.771160,10.488946,20.353380
1772268235837,13.265194,-31.859682,-0.267735,15.044864
1772268235841,10.401266,-171.930228,-126.844600,12.789087
1772268235845,7.584929,-135.134150,-108.509894,9.633696
1772268235849,4.450645,28.327722,17.746297,6.037806
1772268235853,0.828971,93.534513,71.381782,1.792302
1772268235856,-0.885066,70.225496,52.217794,-0.983025
1772268235860,-2.354681,83.260707,59.179006,-0.212048
1772268235864,-6.617310,150.615939,116.773675,2.289756
1772268235868,-8.273742,124.280067,96.976966,6.590990
1772268235872,-2.399397,-58.494073,-58.630509,12.588032
1772268235876,7.426598,-214.023007,-189.752853,18.020225
1772268235880,13.548970,-192.579519,-158.633075,17.720445
1772268235884,11.290390,-103.921316,-65.309042,6.872946
1772268235888,3.638877,-58.994396,-38.270955,-7.125467
1772268235892,1.511471,-56.911402,-74.981685,-8.295303
1772268235802,13.750976,-86.883758,-35.702192,23.710424
1772268235806,17.423153,-46.329525,-13.735590,28.257936
1772268235810,20.517004,-24.617146,11.058440,28.126823
1772268235813,18.789037,61.343870,97.825390,23.107540
1772268235817,15.245541,59.766727,91.751025,16.666414
1772268235821,15.046029,-68.925233,-35.062032,16.722984
1772268235825,19.094630,-175.390091,-132.402426,24.488511
1772268235829,21.165289,-148.255018,-105.791209,27.017177
1772268235833,17.549291,-18.771160,10.488946,20.353380
1772268235837,13.265194,-31.859682,-0.267735,15.044864
1772268235841,10.401266,-171.930228,-126.844600,12.789087
1772268235845,7.584929,-135.134150,-108.509894,9.633696
1772268235849,4.450645,28.327722,17.746297,6.037806
1772268235853,0.828971,93.534513,71.381782,1.792302
1772268235856,-0.885066,70.225496,52.217794,-0.983025
1772268235860,-2.354681,83.260707,59.179006,-0.212048
1772268235864,-6.617310,150.615939,116.773675,2.289756
1772268235868,-8.273742,124.280067,96.976966,6.590990
1772268235872,-2.399397,-58.494073,-58.630509,12.588032
1772268235876,7.426598,-214.023007,-189.752853,18.020225
1772268235880,13.548970,-192.579519,-158.633075,17.720445
1772268235884,11.290390,-103.921316,-65.309042,6.872946
1772268235888,3.638877,-58.994396,-38.270955,-7.125467
1772268235892,1.511471,-56.911402,-74.981685,-8.295303
1772268235802,13.750976,-86.883758,-35.702192,23.710424
1772268235806,17.423153,-46.329525,-13.735590,28.257936
1772268235810,20.517004,-24.617146,11.058440,28.126823
1772268235813,18.789037,61.343870,97.825390,23.107540
1772268235817,15.245541,59.766727,91.751025,16.666414
1772268235821,15.046029,-68.925233,-35.062032,16.722984
1772268235825,19.094630,-175.390091,-132.402426,24.488511
1772268235829,21.165289,-148.255018,-105.791209,27.017177
1772268235833,17.549291,-18.771160,10.488946,20.353380
1772268235837,13.265194,-31.859682,-0.267735,15.044864
1772268235841,10.401266,-171.930228,-126.844600,12.789087
1772268235845,7.584929,-135.134150,-108.509894,9.633696
1772268235849,4.450645,28.327722,17.746297,6.037806
1772268235853,0.828971,93.534513,71.381782,1.792302
1772268235856,-0.885066,70.225496,52.217794,-0.983025
1772268235860,-2.354681,83.260707,59.179006,-0.212048
1772268235864,-6.617310,150.615939,116.773675,2.289756
1772268235868,-8.273742,124.280067,96.976966,6.590990
1772268235872,-2.399397,-58.494073,-58.630509,12.588032
1772268235876,7.426598,-214.023007,-189.752853,18.020225
1772268235880,13.548970,-192.579519,-158.633075,17.720445
1772268235884,11.290390,-103.921316,-65.309042,6.872946
1772268235888,3.638877,-58.994396,-38.270955,-7.125467
1772268235892,1.511471,-56.911402,-74.981685,-8.295303
1772268235942,7.951227,122.818431,91.630289,18.196657
1772268235946,3.300064,147.351324,112.113977,17.248439
1772268235950,3.670890,222.109481,171.722781,19.271169
1772268235954,5.591433,227.257343,174.988166,19.034358
1772268235958,1.123135,77.078790,42.764348,10.383763
1772268235962,-8.471320,-57.529874,-74.513523,-1.173230
1772268235966,-17.570274,-18.033332,-35.681594,-13.090883
1772268235970,-24.868109,88.238738,66.330717,-27.169890
1772268235974,-29.492406,18.877474,17.087241,-38.930819
1772268235977,-28.978096,-212.394010,-194.791183,-38.605272
1772268235981,-24.049467,-272.674900,-272.213404,-27.880446
1772268235985,-16.926382,-40.952602,-73.501246,-22.802188
1772268235942,7.951227,122.818431,91.630289,18.196657
1772268235946,3.300064,147.351324,112.113977,17.248439
1772268235950,3.670890,222.109481,171.722781,19.271169
1772268235954,5.591433,227.257343,174.988166,19.034358
1772268235958,1.123135,77.078790,42.764348,10.383763
1772268235962,-8.471320,-57.529874,-74.513523,-1.173230
1772268235966,-17.570274,-18.033332,-35.681594,-13.090883
1772268235970,-24.868109,88.238738,66.330717,-27.169890
1772268235974,-29.492406,18.877474,17.087241,-38.930819
1772268235977,-28.978096,-212.394010,-194.791183,-38.605272
1772268235981,-24.049467,-272.674900,-272.213404,-27.880446
1772268235985,-16.926382,-40.952602,-73.501246,-22.802188
1772268235942,7.951227,122.818431,91.630289,18.196657
1772268235946,3.300064,147.351324,112.113977,17.248439
1772268235950,3.670890,222.109481,171.722781,19.271169
1772268235954,5.591433,227.257343,174.988166,19.034358
1772268235958,1.123135,77.078790,42.764348,10.383763
1772268235962,-8.471320,-57.529874,-74.513523,-1.173230
1772268235966,-17.570274,-18.033332,-35.681594,-13.090883
1772268235970,-24.868109,88.238738,66.330717,-27.169890
1772268235974,-29.492406,18.877474,17.087241,-38.930819
1772268235977,-28.978096,-212.394010,-194.791183,-38.605272
1772268235981,-24.049467,-272.674900,-272.213404,-27.880446
1772268235985,-16.926382,-40.952602,-73.501246,-22.802188
1772268235989,-17.673567,27.075190,-7.844904,-28.702065
1772268235993,-13.984924,79.467315,39.415099,-21.405063
1772268235997,-9.163969,219.140528,158.550110,-13.031044
1772268236001,-3.891516,225.101676,170.156384,-5.843372
1772268236005,-2.001368,131.594601,103.265226,-4.051746
1772268236009,-2.560766,56.986200,40.653804,-4.283340
1772268236013,-3.940425,-2.628109,-18.130716,-1.160723
1772268236017,-3.122729,-67.849283,-73.199057,2.970357
1772268236020,0.763181,-65.795293,-55.676940,2.222617
1772268236024,3.717587,61.303681,67.383209,-3.094883
1772268236028,3.452345,151.892952,132.897237,-6.803824
1772268236032,3.199140,98.552888,55.000040,-3.868364
1772268236036,9.704340,157.432831,120.563771,-0.767155
1772268236040,10.014363,190.641419,143.103446,2.137444
1772268236044,8.914126,228.942244,173.938323,5.197293
1772268236048,9.395379,142.856083,101.655417,6.309169
1772268236052,9.192198,59.491616,35.979859,4.597851
1772268236056,8.158373,87.067066,68.256719,3.027868
1772268236060,8.066577,100.130303,83.195527,4.535453
1772268236063,7.011430,-31.848555,-34.612299,6.548698
1772268236067,6.559947,-188.992283,-184.954341,9.062517
1772268236071,7.892376,-154.142629,-159.570424,11.557573
1772268236075,7.945660,34.505407,23.802314,7.074653
1772268236079,2.029123,220.385108,194.491752,-4.632624
1772268236036,9.704340,157.432831,120.563771,-0.767155
1772268236040,10.014363,190.641419,143.103446,2.137444
1772268236044,8.914126,228.942244,173.938323,5.197293
1772268236048,9.395379,142.856083,101.655417,6.309169
1772268236052,9.192198,59.491616,35.979859,4.597851
1772268236056,8.158373,87.067066,68.256719,3.027868
1772268236060,8.066577,100.130303,83.195527,4.535453
1772268236063,7.011430,-31.848555,-34.612299,6.548698
1772268236067,6.559947,-188.992283,-184.954341,9.062517
1772268236071,7.892376,-154.142629,-159.570424,11.557573
1772268236075,7.945660,34.505407,23.802314,7.074653
1772268236079,2.029123,220.385108,194.491752,-4.632624
1772268236083,-2.473766,85.507377,48.763358,-1.709214
1772268236087,-3.327602,149.876601,102.163074,-0.341333
1772268236091,0.187687,157.361728,111.834414,4.635419
1772268236095,4.479147,79.773506,52.313999,9.762276
1772268236099,8.688389,-28.464562,-43.606320,15.339766
1772268236102,13.075420,-132.788711,-136.672723,22.478007
1772268236106,14.934501,-224.179859,-204.613954,27.351871
1772268236110,9.881066,-221.518576,-186.053578,23.379054
1772268236114,-1.357881,-82.404144,-65.080234,11.945359
1772268236118,-9.655321,-38.932425,-51.158528,7.111369
1772268236122,-7.507935,-170.318333,-188.085343,15.356820
1772268236126,1.656917,-141.210442,-160.416758,23.142542
1772268236083,-2.473766,85.507377,48.763358,-1.709214
1772268236087,-3.327602,149.876601,102.163074,-0.341333
1772268236091,0.187687,157.361728,111.834414,4.635419
1772268236095,4.479147,79.773506,52.313999,9.762276
1772268236099,8.688389,-28.464562,-43.606320,15.339766
1772268236102,13.075420,-132.788711,-136.672723,22.478007
1772268236106,14.934501,-224.179859,-204.613954,27.351871
1772268236110,9.881066,-221.518576,-186.053578,23.379054
1772268236114,-1.357881,-82.404144,-65.080234,11.945359
1772268236118,-9.655321,-38.932425,-51.158528,7.111369
1772268236122,-7.507935,-170.318333,-188.085343,15.356820
1772268236126,1.656917,-141.210442,-160.416758,23.142542
1772268236130,0.938379,136.959112,102.546939,9.275900
1772268236134,-2.530544,151.146005,114.702733,1.672296
1772268236138,-4.770575,-1.712375,-25.121720,1.729327
1772268236142,-4.868626,-105.525205,-116.446693,7.138787
1772268236145,-4.463959,-16.116312,-30.764478,7.910741
1772268236149,-5.467611,85.323173,61.764130,1.450459
1772268236153,-7.728874,8.120189,-5.809168,-4.129305
1772268236157,-6.113952,-180.216261,-171.810894,-2.097709
1772268236161,-1.732374,-234.053040,-217.212893,4.661253
1772268236165,0.542408,-147.703215,-133.231928,9.135670
1772268236169,1.285075,-126.477776,-107.022877,8.032618
1772268236173,0.786489,-102.389074,-87.748521,5.137976
1772268236177,0.043972,4.193627,-4.905252,3.628116
1772268236181,-0.313886,35.574784,17.795125,0.661859
1772268236185,-2.193619,-41.125931,-47.652164,-2.370607
1772268236188,-5.082073,-55.736423,-66.782629,-1.643808
1772268236192,-7.018500,85.267192,52.106106,1.673344
1772268236196,-7.188811,194.666740,159.039719,4.097352
1772268236200,-8.563767,90.463853,86.730916,1.403055
1772268236204,-12.507742,-120.343207,-94.541118,-3.526947
1772268236208,-13.820344,-227.819432,-210.920023,-1.464680
1772268236212,-9.175987,-151.946033,-155.298165,6.555774
1772268236216,-3.275195,11.149442,6.453611,7.317474
1772268236220,-6.100497,122.950202,119.225152,-6.241661
1772268236130,0.938379,136.959112,102.546939,9.275900
1772268236134,-2.530544,151.146005,114.702733,1.672296
1772268236138,-4.770575,-1.712375,-25.121720,1.729327
1772268236142,-4.868626,-105.525205,-116.446693,7.138787
1772268236145,-4.463959,-16.116312,-30.764478,7.910741
1772268236149,-5.467611,85.323173,61.764130,1.450459
1772268236153,-7.728874,8.120189,-5.809168,-4.129305
1772268236157,-6.113952,-180.216261,-171.810894,-2.097709
1772268236161,-1.732374,-234.053040,-217.212893,4.661253
1772268236165,0.542408,-147.703215,-133.231928,9.135670
1772268236169,1.285075,-126.477776,-107.022877,8.032618
1772268236173,0.786489,-102.389074,-87.748521,5.137976
1772268236177,0.043972,4.193627,-4.905252,3.628116
1772268236181,-0.313886,35.574784,17.795125,0.661859
1772268236185,-2.193619,-41.125931,-47.652164,-2.370607
1772268236188,-5.082073,-55.736423,-66.782629,-1.643808
1772268236192,-7.018500,85.267192,52.106106,1.673344
1772268236196,-7.188811,194.666740,159.039719,4.097352
1772268236200,-8.563767,90.463853,86.730916,1.403055
1772268236204,-12.507742,-120.343207,-94.541118,-3.526947
1772268236208,-13.820344,-227.819432,-210.920023,-1.464680
1772268236212,-9.175987,-151.946033,-155.298165,6.555774
1772268236216,-3.275195,11.149442,6.453611,7.317474
1772268236220,-6.100497,122.950202,119.225152,-6.241661
1772268236224,-10.562430,84.279468,54.374718,-8.984701
1772268236227,-9.213740,142.621433,106.245838,-8.618001
1772268236231,-5.629607,104.831225,82.549573,-6.520602
1772268236235,-5.750465,148.914423,124.911604,-5.671682
1772268236239,-11.226779,184.079846,145.758511,-6.476810
1772268236243,-15.081688,86.027992,54.467034,-7.132878
1772268236247,-12.598401,-79.478758,-78.593488,-5.910178
1772268236251,-8.690545,-100.234556,-76.765259,-5.633209
1772268236255,-6.655829,-4.109736,15.530417,-8.372156
1772268236259,-5.642521,-68.534584,-55.064018,-8.962565
1772268236263,-5.347770,-180.738820,-175.124592,-2.303508
1772268236267,-2.951080,-64.843711,-77.799204,7.861658
1772268236224,-10.562430,84.279468,54.374718,-8.984701
1772268236227,-9.213740,142.621433,106.245838,-8.618001
1772268236231,-5.629607,104.831225,82.549573,-6.520602
1772268236235,-5.750465,148.914423,124.911604,-5.671682
1772268236239,-11.226779,184.079846,145.758511,-6.476810
1772268236243,-15.081688,86.027992,54.467034,-7.132878
1772268236247,-12.598401,-79.478758,-78.593488,-5.910178
1772268236251,-8.690545,-100.234556,-76.765259,-5.633209
1772268236255,-6.655829,-4.109736,15.530417,-8.372156
1772268236259,-5.642521,-68.534584,-55.064018,-8.962565
1772268236263,-5.347770,-180.738820,-175.124592,-2.303508
1772268236267,-2.951080,-64.843711,-77.799204,7.861658
1772268236270,-8.133788,124.936696,97.523706,-0.700844
1772268236274,-8.458999,88.316227,68.804698,-4.493705
1772268236278,-7.849028,42.141810,29.595285,-6.251525
1772268236282,-5.918383,89.460307,72.918433,-4.869062
1772268236286,-8.088762,107.519226,92.728176,-9.799163
1772268236290,-14.040637,34.655191,28.314885,-19.367895
1772268236294,-15.695533,-73.207520,-70.528882,-21.638890
1772268236298,-9.452472,-153.740099,-146.479051,-15.378481
1772268236302,0.750990,-169.344250,-148.700953,-9.005272
1772268236306,6.708484,-127.323684,-89.285492,-9.003790
1772268236309,3.806629,-17.573284,2.663957,-15.793219
1772268236313,-3.188813,31.576842,14.270511,-21.468101
1772268236270,-8.133788,124.936696,97.523706,-0.700844
1772268236274,-8.458999,88.316227,68.804698,-4.493705
1772268236278,-7.849028,42.141810,29.595285,-6.251525
1772268236282,-5.918383,89.460307,72.918433,-4.869062
1772268236286,-8.088762,107.519226,92.728176,-9.799163
1772268236290,-14.040637,34.655191,28.314885,-19.367895
1772268236294,-15.695533,-73.207520,-70.528882,-21.638890
1772268236298,-9.452472,-153.740099,-146.479051,-15.378481
1772268236302,0.750990,-169.344250,-148.700953,-9.005272
1772268236306,6.708484,-127.323684,-89.285492,-9.003790
1772268236309,3.806629,-17.573284,2.663957,-15.793219
1772268236313,-3.188813,31.576842,14.270511,-21.468101
1772268236317,-1.807880,90.384354,73.143916,-16.805403
1772268236321,-6.519177,61.365606,43.061324,-16.637620
1772268236325,-7.123926,83.176389,57.056465,-13.639183
1772268236329,-3.066852,23.596775,6.771150,-8.208610
1772268236333,1.483690,-98.154291,-86.544487,-2.241608
1772268236337,2.591106,-118.298447,-93.125310,0.766489
1772268236341,-0.728360,-34.678241,-18.463803,-0.654044
1772268236345,-3.856090,-35.799929,-22.230387,-1.536146
1772268236349,-1.245637,-248.801236,-210.996775,3.724894
1772268236352,5.450160,-376.972995,-317.759096,11.751450
1772268236356,13.037551,-140.395757,-100.589584,13.895948
1772268236360,16.448472,195.512947,195.318867,5.390739
1772268236317,-1.807880,90.384354,73.143916,-16.805403
1772268236321,-6.519177,61.365606,43.061324,-16.637620
1772268236325,-7.123926,83.176389,57.056465,-13.639183
1772268236329,-3.066852,23.596775,6.771150,-8.208610
1772268236333,1.483690,-98.154291,-86.544487,-2.241608
1772268236337,2.591106,-118.298447,-93.125310,0.766489
1772268236341,-0.728360,-34.678241,-18.463803,-0.654044
1772268236345,-3.856090,-35.799929,-22.230387,-1.536146
1772268236349,-1.245637,-248.801236,-210.996775,3.724894
1772268236352,5.450160,-376.972995,-317.759096,11.751450
1772268236356,13.037551,-140.395757,-100.589584,13.895948
1772268236360,16.448472,195.512947,195.318867,5.390739
1772268236364,17.522466,26.716403,27.183362,9.521441
1772268236368,15.623020,71.253209,63.367489,6.118079
1772268236372,9.946073,186.644451,158.633307,-2.094225
1772268236376,8.205880,178.909359,154.257632,-8.597124
1772268236380,11.461637,15.023497,14.772749,-6.162703
1772268236384,11.952555,-103.967501,-88.286123,-1.114693
1772268236388,9.865096,-91.490315,-74.167215,-0.901310
1772268236392,8.447459,-44.836444,-17.665844,-6.047256
1772268236395,5.053447,-79.154424,-32.159792,-13.011912
1772268236399,-1.165190,-179.042200,-129.472279,-13.199018
1772268236403,-5.146641,-229.157779,-195.091138,-4.305841
1772268236407,-3.147028,-109.311496,-97.042505,5.159225
1772268236411,-3.640164,45.311099,51.214122,0.584483
1772268236415,-1.207526,142.599555,136.944544,7.460139
1772268236419,0.181091,203.847749,186.749926,11.037554
1772268236423,2.836327,124.416501,120.688517,15.326915
1772268236427,6.681911,25.155865,43.996110,19.014454
1772268236431,7.239383,-11.708785,17.003292,19.975722
1772268236434,0.998915,-46.122453,-15.893173,17.557768
1772268236438,-5.523764,-82.471049,-55.471316,15.244103
1772268236442,-4.187091,-42.524463,-17.876655,14.396579
1772268236446,0.579068,40.008105,66.269171,9.835715
1772268236450,3.293639,14.040666,47.655534,3.540520
1772268236454,8.466504,-184.410274,-134.756700,9.181245
1772268236364,17.522466,26.716403,27.183362,9.521441
1772268236368,15.623020,71.253209,63.367489,6.118079
1772268236372,9.946073,186.644451,158.633307,-2.094225
1772268236376,8.205880,178.909359,154.257632,-8.597124
1772268236380,11.461637,15.023497,14.772749,-6.162703
1772268236384,11.952555,-103.967501,-88.286123,-1.114693
1772268236388,9.865096,-91.490315,-74.167215,-0.901310
1772268236392,8.447459,-44.836444,-17.665844,-6.047256
1772268236395,5.053447,-79.154424,-32.159792,-13.011912
1772268236399,-1.165190,-179.042200,-129.472279,-13.199018
1772268236403,-5.146641,-229.157779,-195.091138,-4.305841
1772268236407,-3.147028,-109.311496,-97.042505,5.159225
1772268236411,-3.640164,45.311099,51.214122,0.584483
1772268236415,-1.207526,142.599555,136.944544,7.460139
1772268236419,0.181091,203.847749,186.749926,11.037554
1772268236423,2.836327,124.416501,120.688517,15.326915
1772268236427,6.681911,25.155865,43.996110,19.014454
1772268236431,7.239383,-11.708785,17.003292,19.975722
1772268236434,0.998915,-46.122453,-15.893173,17.557768
1772268236438,-5.523764,-82.471049,-55.471316,15.244103
1772268236442,-4.187091,-42.524463,-17.876655,14.396579
1772268236446,0.579068,40.008105,66.269171,9.835715
1772268236450,3.293639,14.040666,47.655534,3.540520
1772268236454,8.466504,-184.410274,-134.756700,9.181245
1772268236364,17.522466,26.716403,27.183362,9.521441
1772268236368,15.623020,71.253209,63.367489,6.118079
1772268236372,9.946073,186.644451,158.633307,-2.094225
1772268236376,8.205880,178.909359,154.257632,-8.597124
1772268236380,11.461637,15.023497,14.772749,-6.162703
1772268236384,11.952555,-103.967501,-88.286123,-1.114693
1772268236388,9.865096,-91.490315,-74.167215,-0.901310
1772268236392,8.447459,-44.836444,-17.665844,-6.047256
1772268236395,5.053447,-79.154424,-32.159792,-13.011912
1772268236399,-1.165190,-179.042200,-129.472279,-13.199018
1772268236403,-5.146641,-229.157779,-195.091138,-4.305841
1772268236407,-3.147028,-109.311496,-97.042505,5.159225
1772268236411,-3.640164,45.311099,51.214122,0.584483
1772268236415,-1.207526,142.599555,136.944544,7.460139
1772268236419,0.181091,203.847749,186.749926,11.037554
1772268236423,2.836327,124.416501,120.688517,15.326915
1772268236427,6.681911,25.155865,43.996110,19.014454
1772268236431,7.239383,-11.708785,17.003292,19.975722
1772268236434,0.998915,-46.122453,-15.893173,17.557768
1772268236438,-5.523764,-82.471049,-55.471316,15.244103
1772268236442,-4.187091,-42.524463,-17.876655,14.396579
1772268236446,0.579068,40.008105,66.269171,9.835715
1772268236450,3.293639,14.040666,47.655534,3.540520
1772268236454,8.466504,-184.410274,-134.756700,9.181245
1772268236505,8.551842,71.237481,77.586181,30.755605
1772268236509,6.609975,95.474432,97.261727,25.219951
1772268236513,5.148926,44.221723,54.357434,20.118413
1772268236516,4.043410,4.003984,15.227549,15.474629
1772268236520,2.713495,57.750111,46.830722,13.078778
1772268236524,3.867491,73.218165,51.868035,15.943979
1772268236528,8.340510,-69.470646,-62.322427,18.524013
1772268236532,9.608346,-144.693619,-107.107302,12.184328
1772268236536,5.942022,2.680319,26.072664,-0.064244
1772268236540,1.393492,87.432204,78.545040,-7.166078
1772268236544,-1.064656,-93.859027,-98.651800,-3.172195
1772268236548,0.928854,-250.112957,-231.823221,5.777226
1772268236505,8.551842,71.237481,77.586181,30.755605
1772268236509,6.609975,95.474432,97.261727,25.219951
1772268236513,5.148926,44.221723,54.357434,20.118413
1772268236516,4.043410,4.003984,15.227549,15.474629
1772268236520,2.713495,57.750111,46.830722,13.078778
1772268236524,3.867491,73.218165,51.868035,15.943979
1772268236528,8.340510,-69.470646,-62.322427,18.524013
1772268236532,9.608346,-144.693619,-107.107302,12.184328
1772268236536,5.942022,2.680319,26.072664,-0.064244
1772268236540,1.393492,87.432204,78.545040,-7.166078
1772268236544,-1.064656,-93.859027,-98.651800,-3.172195
1772268236548,0.928854,-250.112957,-231.823221,5.777226
1772268236458,16.449193,-219.208034,-157.610976,22.409668
1772268236462,12.371815,-80.278506,-45.803219,23.297115
1772268236466,5.999329,73.307050,77.034906,21.172843
1772268236470,3.503853,59.587836,58.638886,20.044987
1772268236474,1.481130,30.550564,34.837920,19.454726
1772268236477,-0.835911,23.825577,38.664243,21.178920
1772268236481,-2.504872,-53.142737,-12.476325,22.867575
1772268236485,-2.276969,-175.957527,-115.033944,23.554335
1772268236489,0.137399,-198.198167,-154.279403,26.994566
1772268236493,1.669225,-97.279811,-79.895692,31.596804
1772268236497,4.251443,12.708879,29.916593,33.012379
1772268236501,9.678409,135.266668,157.069482,29.626037
1772268236458,16.449193,-219.208034,-157.610976,22.409668
1772268236462,12.371815,-80.278506,-45.803219,23.297115
1772268236466,5.999329,73.307050,77.034906,21.172843
1772268236470,3.503853,59.587836,58.638886,20.044987
1772268236474,1.481130,30.550564,34.837920,19.454726
1772268236477,-0.835911,23.825577,38.664243,21.178920
1772268236481,-2.504872,-53.142737,-12.476325,22.867575
1772268236485,-2.276969,-175.957527,-115.033944,23.554335
1772268236489,0.137399,-198.198167,-154.279403,26.994566
1772268236493,1.669225,-97.279811,-79.895692,31.596804
1772268236497,4.251443,12.708879,29.916593,33.012379
1772268236501,9.678409,135.266668,157.069482,29.626037
1772268236505,8.551842,71.237481,77.586181,30.755605
1772268236509,6.609975,95.474432,97.261727,25.219951
1772268236513,5.148926,44.221723,54.357434,20.118413
1772268236516,4.043410,4.003984,15.227549,15.474629
1772268236520,2.713495,57.750111,46.830722,13.078778
1772268236524,3.867491,73.218165,51.868035,15.943979
1772268236528,8.340510,-69.470646,-62.322427,18.524013
1772268236532,9.608346,-144.693619,-107.107302,12.184328
1772268236536,5.942022,2.680319,26.072664,-0.064244
1772268236540,1.393492,87.432204,78.545040,-7.166078
1772268236544,-1.064656,-93.859027,-98.651800,-3.172195
1772268236548,0.928854,-250.112957,-231.823221,5.777226
1772268236505,8.551842,71.237481,77.586181,30.755605
1772268236509,6.609975,95.474432,97.261727,25.219951
1772268236513,5.148926,44.221723,54.357434,20.118413
1772268236516,4.043410,4.003984,15.227549,15.474629
1772268236520,2.713495,57.750111,46.830722,13.078778
1772268236524,3.867491,73.218165,51.868035,15.943979
1772268236528,8.340510,-69.470646,-62.322427,18.524013
1772268236532,9.608346,-144.693619,-107.107302,12.184328
1772268236536,5.942022,2.680319,26.072664,-0.064244
1772268236540,1.393492,87.432204,78.545040,-7.166078
1772268236544,-1.064656,-93.859027,-98.651800,-3.172195
1772268236548,0.928854,-250.112957,-231.823221,5.777226
1772268236552,-1.201149,14.919536,19.554816,-2.246756
1772268236556,-5.206897,105.636380,90.549507,-7.101736
1772268236559,-3.100040,-32.675904,-40.596384,-4.046971
1772268236563,3.781136,-105.065395,-108.504320,5.613673
1772268236567,10.063397,-20.872980,-30.661913,10.633802
1772268236571,10.771789,41.201113,35.767236,5.183346
1772268236575,6.399122,-5.416367,5.354154,-3.150031
1772268236579,1.916356,-87.735050,-73.904500,-5.930589
1772268236583,-1.128657,-134.009733,-129.288315,-4.604031
1772268236587,-2.707444,-235.987353,-220.890538,-4.096218
1772268236591,-2.892838,-325.445526,-290.002493,-7.162583
1772268236595,-1.879510,-195.991589,-173.039083,-9.883795
1772268236599,-0.293626,2.855602,-3.941020,-7.906243
1772268236602,-0.755174,36.978655,26.591794,-5.284711
1772268236606,-2.940163,-41.885513,-41.143605,-4.157671
1772268236610,-3.521142,-72.824914,-73.132707,-2.018187
1772268236614,-1.097237,-28.200786,-33.284801,1.317568
1772268236618,1.889973,-3.302205,-1.785997,3.788053
1772268236622,1.387204,-66.592799,-44.546775,0.535641
1772268236626,-2.355227,-205.089044,-166.409826,-8.376895
1772268236630,-4.183104,-324.318304,-288.306114,-12.732794
1772268236634,-0.375085,-352.535282,-321.314120,-6.484840
1772268236638,4.728032,-194.825750,-173.392615,1.846613
1772268236641,2.442416,92.449258,94.079779,-2.204641
1772268236692,-12.227345,107.349256,77.075599,-21.237823
1772268236696,-9.779713,127.074495,98.224397,-21.173202
1772268236700,-8.456515,152.758737,119.285771,-23.138264
1772268236704,-7.977298,173.210648,139.592750,-24.361821
1772268236708,-6.679423,165.740128,140.054425,-24.967180
1772268236712,-6.980981,139.863012,121.693527,-27.986969
1772268236716,-7.143408,69.704697,57.565591,-28.467286
1772268236720,-2.905381,-62.717546,-63.861440,-21.338597
1772268236724,3.488306,-183.169677,-159.400633,-12.854708
1772268236727,8.071395,-149.300509,-111.549129,-10.978299
1772268236731,6.575161,52.550776,66.723142,-17.050161
1772268236735,0.719115,161.475197,141.693037,-20.896660
1772268236692,-12.227345,107.349256,77.075599,-21.237823
1772268236696,-9.779713,127.074495,98.224397,-21.173202
1772268236700,-8.456515,152.758737,119.285771,-23.138264
1772268236704,-7.977298,173.210648,139.592750,-24.361821
1772268236708,-6.679423,165.740128,140.054425,-24.967180
1772268236712,-6.980981,139.863012,121.693527,-27.986969
1772268236716,-7.143408,69.704697,57.565591,-28.467286
1772268236720,-2.905381,-62.717546,-63.861440,-21.338597
1772268236724,3.488306,-183.169677,-159.400633,-12.854708
1772268236727,8.071395,-149.300509,-111.549129,-10.978299
1772268236731,6.575161,52.550776,66.723142,-17.050161
1772268236735,0.719115,161.475197,141.693037,-20.896660
1772268236692,-12.227345,107.349256,77.075599,-21.237823
1772268236696,-9.779713,127.074495,98.224397,-21.173202
1772268236700,-8.456515,152.758737,119.285771,-23.138264
1772268236704,-7.977298,173.210648,139.592750,-24.361821
1772268236708,-6.679423,165.740128,140.054425,-24.967180
1772268236712,-6.980981,139.863012,121.693527,-27.986969
1772268236716,-7.143408,69.704697,57.565591,-28.467286
1772268236720,-2.905381,-62.717546,-63.861440,-21.338597
1772268236724,3.488306,-183.169677,-159.400633,-12.854708
1772268236727,8.071395,-149.300509,-111.549129,-10.978299
1772268236731,6.575161,52.550776,66.723142,-17.050161
1772268236735,0.719115,161.475197,141.693037,-20.896660
1772268236692,-12.227345,107.349256,77.075599,-21.237823
1772268236696,-9.779713,127.074495,98.224397,-21.173202
1772268236700,-8.456515,152.758737,119.285771,-23.138264
1772268236704,-7.977298,173.210648,139.592750,-24.361821
1772268236708,-6.679423,165.740128,140.054425,-24.967180
1772268236712,-6.980981,139.863012,121.693527,-27.986969
1772268236716,-7.143408,69.704697,57.565591,-28.467286
1772268236720,-2.905381,-62.717546,-63.861440,-21.338597
1772268236724,3.488306,-183.169677,-159.400633,-12.854708
1772268236727,8.071395,-149.300509,-111.549129,-10.978299
1772268236731,6.575161,52.550776,66.723142,-17.050161
1772268236735,0.719115,161.475197,141.693037,-20.896660
1772268236692,-12.227345,107.349256,77.075599,-21.237823
1772268236696,-9.779713,127.074495,98.224397,-21.173202
1772268236700,-8.456515,152.758737,119.285771,-23.138264
1772268236704,-7.977298,173.210648,139.592750,-24.361821
1772268236708,-6.679423,165.740128,140.054425,-24.967180
1772268236712,-6.980981,139.863012,121.693527,-27.986969
1772268236716,-7.143408,69.704697,57.565591,-28.467286
1772268236720,-2.905381,-62.717546,-63.861440,-21.338597
1772268236724,3.488306,-183.169677,-159.400633,-12.854708
1772268236727,8.071395,-149.300509,-111.549129,-10.978299
1772268236731,6.575161,52.550776,66.723142,-17.050161
1772268236735,0.719115,161.475197,141.693037,-20.896660
1772268236692,-12.227345,107.349256,77.075599,-21.237823
1772268236696,-9.779713,127.074495,98.224397,-21.173202
1772268236700,-8.456515,152.758737,119.285771,-23.138264
1772268236704,-7.977298,173.210648,139.592750,-24.361821
1772268236708,-6.679423,165.740128,140.054425,-24.967180
1772268236712,-6.980981,139.863012,121.693527,-27.986969
1772268236716,-7.143408,69.704697,57.565591,-28.467286
1772268236720,-2.905381,-62.717546,-63.861440,-21.338597
1772268236724,3.488306,-183.169677,-159.400633,-12.854708
1772268236727,8.071395,-149.300509,-111.549129,-10.978299
1772268236731,6.575161,52.550776,66.723142,-17.050161
1772268236735,0.719115,161.475197,141.693037,-20.896660
1772268236786,7.557295,80.064130,83.024309,-7.531833
1772268236790,6.941398,110.294997,107.687756,-7.843107
1772268236794,8.415433,238.321618,213.935996,-5.859882
1772268236798,14.451224,259.022582,232.657175,-0.161905
1772268236802,13.634432,131.790476,124.293805,2.165114
1772268236806,2.321105,-6.562051,-1.145648,-2.411995
1772268236809,-9.407422,-96.583413,-83.445812,-5.067995
1772268236813,-14.611451,-118.427898,-87.444661,-3.405754
1772268236817,-15.625847,-41.243863,-5.413747,-4.600666
1772268236821,-17.678537,32.232691,48.593004,-6.853996
1772268236825,-18.723533,-65.531289,-61.276283,-0.200537
1772268236829,-14.241654,-138.008748,-140.359444,12.099375
1772268236786,7.557295,80.064130,83.024309,-7.531833
1772268236790,6.941398,110.294997,107.687756,-7.843107
1772268236794,8.415433,238.321618,213.935996,-5.859882
1772268236798,14.451224,259.022582,232.657175,-0.161905
1772268236802,13.634432,131.790476,124.293805,2.165114
1772268236806,2.321105,-6.562051,-1.145648,-2.411995
1772268236809,-9.407422,-96.583413,-83.445812,-5.067995
1772268236813,-14.611451,-118.427898,-87.444661,-3.405754
1772268236817,-15.625847,-41.243863,-5.413747,-4.600666
1772268236821,-17.678537,32.232691,48.593004,-6.853996
1772268236825,-18.723533,-65.531289,-61.276283,-0.200537
1772268236829,-14.241654,-138.008748,-140.359444,12.099375
1772268236880,-0.006873,209.623386,185.205195,1.161001
1772268236884,1.773012,175.230388,154.602746,5.340384
1772268236888,3.470759,61.729268,59.995961,9.604139
1772268236891,3.038773,35.578374,38.933443,9.842183
1772268236895,4.836733,128.165313,115.266758,9.467987
1772268236899,11.066063,158.639895,140.767623,11.414832
1772268236903,15.872906,66.931873,74.606282,9.985032
1772268236907,16.086085,-45.728680,-15.600613,4.442875
1772268236911,14.022190,-51.148678,-36.831889,3.032188
1772268236915,14.566400,7.674909,-4.072082,11.018570
1772268236919,17.541683,-1.425309,-5.151352,20.027168
1772268236923,16.027203,53.974513,67.984647,14.238610
1772268236880,-0.006873,209.623386,185.205195,1.161001
1772268236884,1.773012,175.230388,154.602746,5.340384
1772268236888,3.470759,61.729268,59.995961,9.604139
1772268236891,3.038773,35.578374,38.933443,9.842183
1772268236895,4.836733,128.165313,115.266758,9.467987
1772268236899,11.066063,158.639895,140.767623,11.414832
1772268236903,15.872906,66.931873,74.606282,9.985032
1772268236907,16.086085,-45.728680,-15.600613,4.442875
1772268236911,14.022190,-51.148678,-36.831889,3.032188
1772268236915,14.566400,7.674909,-4.072082,11.018570
1772268236919,17.541683,-1.425309,-5.151352,20.027168
1772268236923,16.027203,53.974513,67.984647,14.238610
1772268236833,-12.385401,71.102933,61.947135,2.460298
1772268236837,-15.295315,154.372357,135.315616,-3.831994
1772268236841,-18.845892,159.777717,139.921824,-3.778140
1772268236845,-18.714247,72.055794,69.991145,1.462653
1772268236848,-14.616877,48.644178,55.489450,3.317363
1772268236852,-10.161169,81.913159,87.574168,0.893965
1772268236856,-5.805002,-33.790747,-10.625255,1.714595
1772268236860,-0.292653,-227.493767,-181.867740,7.237081
1772268236864,6.348353,-163.127019,-129.390892,12.118894
1772268236868,11.490735,101.701076,107.423932,11.340896
1772268236872,7.925468,231.964255,230.727664,1.016643
1772268236876,-2.206182,171.990026,164.535206,-9.715853
1772268236833,-12.385401,71.102933,61.947135,2.460298
1772268236837,-15.295315,154.372357,135.315616,-3.831994
1772268236841,-18.845892,159.777717,139.921824,-3.778140
1772268236845,-18.714247,72.055794,69.991145,1.462653
1772268236848,-14.616877,48.644178,55.489450,3.317363
1772268236852,-10.161169,81.913159,87.574168,0.893965
1772268236856,-5.805002,-33.790747,-10.625255,1.714595
1772268236860,-0.292653,-227.493767,-181.867740,7.237081
1772268236864,6.348353,-163.127019,-129.390892,12.118894
1772268236868,11.490735,101.701076,107.423932,11.340896
1772268236872,7.925468,231.964255,230.727664,1.016643
1772268236876,-2.206182,171.990026,164.535206,-9.715853
1772268236880,-0.006873,209.623386,185.205195,1.161001
1772268236884,1.773012,175.230388,154.602746,5.340384
1772268236888,3.470759,61.729268,59.995961,9.604139
1772268236891,3.038773,35.578374,38.933443,9.842183
1772268236895,4.836733,128.165313,115.266758,9.467987
1772268236899,11.066063,158.639895,140.767623,11.414832
1772268236903,15.872906,66.931873,74.606282,9.985032
1772268236907,16.086085,-45.728680,-15.600613,4.442875
1772268236911,14.022190,-51.148678,-36.831889,3.032188
1772268236915,14.566400,7.674909,-4.072082,11.018570
1772268236919,17.541683,-1.425309,-5.151352,20.027168
1772268236923,16.027203,53.974513,67.984647,14.238610
1772268236880,-0.006873,209.623386,185.205195,1.161001
1772268236884,1.773012,175.230388,154.602746,5.340384
1772268236888,3.470759,61.729268,59.995961,9.604139
1772268236891,3.038773,35.578374,38.933443,9.842183
1772268236895,4.836733,128.165313,115.266758,9.467987
1772268236899,11.066063,158.639895,140.767623,11.414832
1772268236903,15.872906,66.931873,74.606282,9.985032
1772268236907,16.086085,-45.728680,-15.600613,4.442875
1772268236911,14.022190,-51.148678,-36.831889,3.032188
1772268236915,14.566400,7.674909,-4.072082,11.018570
1772268236919,17.541683,-1.425309,-5.151352,20.027168
1772268236923,16.027203,53.974513,67.984647,14.238610
1772268237020,-1.664845,-18.394100,-1.339944,1.942368
1772268237024,-0.828606,32.519874,32.350769,0.680134
1772268237028,-2.247171,52.069229,38.826322,-2.445435
1772268237032,-2.985537,85.069123,64.292821,-3.213334
1772268237036,-0.668149,95.544422,79.897860,0.191341
1772268237040,5.920070,63.342958,60.273228,6.639512
1772268237044,10.086956,36.222595,47.559247,7.532938
1772268237048,3.143145,-12.293186,9.776379,-5.745151
1772268237052,-9.037867,-154.751624,-121.419671,-22.592842
1772268237055,-11.972857,-297.220751,-254.518099,-24.930607
1772268237059,-5.020165,-191.377396,-166.558245,-14.999143
1772268237063,-0.257077,125.422636,118.787443,-11.172285
1772268237020,-1.664845,-18.394100,-1.339944,1.942368
1772268237024,-0.828606,32.519874,32.350769,0.680134
1772268237028,-2.247171,52.069229,38.826322,-2.445435
1772268237032,-2.985537,85.069123,64.292821,-3.213334
1772268237036,-0.668149,95.544422,79.897860,0.191341
1772268237040,5.920070,63.342958,60.273228,6.639512
1772268237044,10.086956,36.222595,47.559247,7.532938
1772268237048,3.143145,-12.293186,9.776379,-5.745151
1772268237052,-9.037867,-154.751624,-121.419671,-22.592842
1772268237055,-11.972857,-297.220751,-254.518099,-24.930607
1772268237059,-5.020165,-191.377396,-166.558245,-14.999143
1772268237063,-0.257077,125.422636,118.787443,-11.172285
1772268237020,-1.664845,-18.394100,-1.339944,1.942368
1772268237024,-0.828606,32.519874,32.350769,0.680134
1772268237028,-2.247171,52.069229,38.826322,-2.445435
1772268237032,-2.985537,85.069123,64.292821,-3.213334
1772268237036,-0.668149,95.544422,79.897860,0.191341
1772268237040,5.920070,63.342958,60.273228,6.639512
1772268237044,10.086956,36.222595,47.559247,7.532938
1772268237048,3.143145,-12.293186,9.776379,-5.745151
1772268237052,-9.037867,-154.751624,-121.419671,-22.592842
1772268237055,-11.972857,-297.220751,-254.518099,-24.930607
1772268237059,-5.020165,-191.377396,-166.558245,-14.999143
1772268237063,-0.257077,125.422636,118.787443,-11.172285
1772268237020,-1.664845,-18.394100,-1.339944,1.942368
1772268237024,-0.828606,32.519874,32.350769,0.680134
1772268237028,-2.247171,52.069229,38.826322,-2.445435
1772268237032,-2.985537,85.069123,64.292821,-3.213334
1772268237036,-0.668149,95.544422,79.897860,0.191341
1772268237040,5.920070,63.342958,60.273228,6.639512
1772268237044,10.086956,36.222595,47.559247,7.532938
1772268237048,3.143145,-12.293186,9.776379,-5.745151
1772268237052,-9.037867,-154.751624,-121.419671,-22.592842
1772268237055,-11.972857,-297.220751,-254.518099,-24.930607
1772268237059,-5.020165,-191.377396,-166.558245,-14.999143
1772268237063,-0.257077,125.422636,118.787443,-11.172285
1772268237067,-4.986248,65.944325,56.578472,-16.021446
1772268237071,-5.826847,45.838468,40.966661,-18.258466
1772268237075,-9.799290,95.959740,80.104701,-22.669195
1772268237079,-13.234609,150.645239,123.921378,-24.460511
1772268237083,-17.818119,84.958571,71.219355,-25.733500
1772268237087,-21.013400,-70.332172,-61.109564,-24.903368
1772268237091,-18.691434,-141.278638,-123.063954,-17.556690
1772268237095,-12.763105,-54.583852,-35.391025,-9.043353
1772268237098,-7.912009,-12.848368,22.949988,-8.912694
1772268237102,-9.226677,-79.447490,-28.324827,-15.976179
1772268237106,-11.951633,-140.892631,-109.182255,-16.298703
1772268237110,-5.403049,-148.521561,-148.283910,-2.696497
1772268237067,-4.986248,65.944325,56.578472,-16.021446
1772268237071,-5.826847,45.838468,40.966661,-18.258466
1772268237075,-9.799290,95.959740,80.104701,-22.669195
1772268237079,-13.234609,150.645239,123.921378,-24.460511
1772268237083,-17.818119,84.958571,71.219355,-25.733500
1772268237087,-21.013400,-70.332172,-61.109564,-24.903368
1772268237091,-18.691434,-141.278638,-123.063954,-17.556690
1772268237095,-12.763105,-54.583852,-35.391025,-9.043353
1772268237098,-7.912009,-12.848368,22.949988,-8.912694
1772268237102,-9.226677,-79.447490,-28.324827,-15.976179
1772268237106,-11.951633,-140.892631,-109.182255,-16.298703
1772268237110,-5.403049,-148.521561,-148.283910,-2.696497
1772268237114,0.692784,41.256059,38.536833,-2.967692
1772268237118,-1.135595,119.783423,107.017380,-1.396562
1772268237122,-7.819728,198.440235,171.698917,-1.813909
1772268237126,-10.639157,100.339702,87.888780,-1.422591
1772268237130,-4.875964,-69.664900,-49.927658,0.133279
1772268237134,2.675148,-64.619705,-31.633545,0.601405
1772268237138,7.178252,14.784013,39.089182,2.031079
1772268237141,8.351113,-82.469361,-56.187922,6.964562
1772268237145,7.226672,-255.366279,-209.497490,11.814898
1772268237149,6.162764,-181.945308,-135.052871,10.986434
1772268237153,4.922578,111.450107,133.583149,3.697240
1772268237157,3.041730,225.215854,222.896170,-2.832333
1772268237114,0.692784,41.256059,38.536833,-2.967692
1772268237118,-1.135595,119.783423,107.017380,-1.396562
1772268237122,-7.819728,198.440235,171.698917,-1.813909
1772268237126,-10.639157,100.339702,87.888780,-1.422591
1772268237130,-4.875964,-69.664900,-49.927658,0.133279
1772268237134,2.675148,-64.619705,-31.633545,0.601405
1772268237138,7.178252,14.784013,39.089182,2.031079
1772268237141,8.351113,-82.469361,-56.187922,6.964562
1772268237145,7.226672,-255.366279,-209.497490,11.814898
1772268237149,6.162764,-181.945308,-135.052871,10.986434
1772268237153,4.922578,111.450107,133.583149,3.697240
1772268237157,3.041730,225.215854,222.896170,-2.832333
1772268237161,3.929803,10.685314,17.512959,5.341350
1772268237165,2.188986,63.527548,55.460938,2.448861
1772268237169,3.549246,181.546376,151.942144,4.368720
1772268237173,5.474838,166.927893,143.811216,9.249763
1772268237177,5.011216,19.427922,21.630738,15.904177
1772268237180,4.697777,-90.862586,-72.534637,22.548583
1772268237184,7.454088,-62.287257,-37.861973,25.556131
1772268237188,10.438118,-38.293434,-5.872175,22.988705
1772268237192,7.424301,-104.752803,-70.982647,15.935050
1772268237196,2.230825,-198.290685,-175.821726,13.276878
1772268237200,1.307566,-218.422237,-204.171329,18.303613
1772268237204,2.662814,9.725725,10.389720,17.889078
1772268237161,3.929803,10.685314,17.512959,5.341350
1772268237165,2.188986,63.527548,55.460938,2.448861
1772268237169,3.549246,181.546376,151.942144,4.368720
1772268237173,5.474838,166.927893,143.811216,9.249763
1772268237177,5.011216,19.427922,21.630738,15.904177
1772268237180,4.697777,-90.862586,-72.534637,22.548583
1772268237184,7.454088,-62.287257,-37.861973,25.556131
1772268237188,10.438118,-38.293434,-5.872175,22.988705
1772268237192,7.424301,-104.752803,-70.982647,15.935050
1772268237196,2.230825,-198.290685,-175.821726,13.276878
1772268237200,1.307566,-218.422237,-204.171329,18.303613
1772268237204,2.662814,9.725725,10.389720,17.889078
1772268237208,-1.371468,20.306622,9.469521,8.119256
1772268237212,-2.755650,52.610381,35.597209,7.283333
1772268237216,-2.653204,46.114893,32.935362,8.280793
1772268237220,-0.676763,-14.053549,-13.524774,8.021756
1772268237223,-0.518601,-24.841566,-20.225738,4.315108
1772268237227,-3.455234,-41.401458,-39.258964,1.538619
1772268237231,-5.524722,-175.240393,-153.868860,4.641943
1772268237235,-3.744507,-283.857269,-233.475734,7.907460
1772268237239,0.228192,-160.883565,-117.457413,3.657114
1772268237243,3.055465,20.555653,37.133502,-3.782615
1772268237247,3.623798,-65.184381,-55.304930,-3.532719
1772268237251,2.665182,-232.914969,-226.841409,5.641065
1772268237208,-1.371468,20.306622,9.469521,8.119256
1772268237212,-2.755650,52.610381,35.597209,7.283333
1772268237216,-2.653204,46.114893,32.935362,8.280793
1772268237220,-0.676763,-14.053549,-13.524774,8.021756
1772268237223,-0.518601,-24.841566,-20.225738,4.315108
1772268237227,-3.455234,-41.401458,-39.258964,1.538619
1772268237231,-5.524722,-175.240393,-153.868860,4.641943
1772268237235,-3.744507,-283.857269,-233.475734,7.907460
1772268237239,0.228192,-160.883565,-117.457413,3.657114
1772268237243,3.055465,20.555653,37.133502,-3.782615
1772268237247,3.623798,-65.184381,-55.304930,-3.532719
1772268237251,2.665182,-232.914969,-226.841409,5.641065
1772268237255,5.655343,14.923391,3.750947,1.270294
1772268237259,6.433986,58.203999,38.176281,2.788742
1772268237263,5.964455,26.209798,12.449625,8.162070
1772268237266,4.745765,-11.157499,-18.020199,11.903406
1772268237270,4.866245,21.587751,10.717093,9.967487
1772268237274,4.472621,51.723773,42.718588,1.391108
1772268237278,0.943385,-56.374705,-46.749576,-7.905122
1772268237282,-5.489842,-194.456294,-174.491132,-10.502026
1772268237286,-9.422000,-177.601824,-172.835084,-6.363082
1772268237290,-6.141485,-51.799817,-58.782485,-1.801719
1772268237294,0.055780,80.692040,81.879198,-3.241747
1772268237298,2.710664,92.471730,97.843669,-6.857162
1772268237255,5.655343,14.923391,3.750947,1.270294
1772268237259,6.433986,58.203999,38.176281,2.788742
1772268237263,5.964455,26.209798,12.449625,8.162070
1772268237266,4.745765,-11.157499,-18.020199,11.903406
1772268237270,4.866245,21.587751,10.717093,9.967487
1772268237274,4.472621,51.723773,42.718588,1.391108
1772268237278,0.943385,-56.374705,-46.749576,-7.905122
1772268237282,-5.489842,-194.456294,-174.491132,-10.502026
1772268237286,-9.422000,-177.601824,-172.835084,-6.363082
1772268237290,-6.141485,-51.799817,-58.782485,-1.801719
1772268237294,0.055780,80.692040,81.879198,-3.241747
1772268237298,2.710664,92.471730,97.843669,-6.857162
1772268237302,7.421637,-16.404795,-17.973278,6.021853
1772268237305,12.046473,-92.526859,-81.043203,9.548803
1772268237309,13.746023,-222.937795,-184.100461,11.560408
1772268237313,6.901443,-199.714883,-162.055358,7.875524
1772268237317,-1.859668,-14.850411,-15.234785,8.080866
1772268237321,0.163444,74.055096,55.244207,16.301051
1772268237325,7.445535,10.382589,16.930588,15.077926
1772268237329,6.501219,-49.994205,-21.863261,-3.945591
1772268237333,-1.161673,-41.164024,-26.103962,-22.882305
1772268237337,-5.122180,-103.778939,-102.240885,-26.078829
1772268237341,-2.144922,-199.435103,-189.464077,-17.340445
1772268237345,2.522870,-65.460792,-53.111031,-10.480002
1772268237348,-1.928459,137.293559,124.084864,-18.228627
1772268237352,-6.741450,115.185344,92.106823,-13.946386
1772268237356,-7.253948,-21.430868,-30.524534,-3.790213
1772268237360,-3.354632,-25.837589,-32.721069,3.327068
1772268237364,0.470178,103.062860,86.783538,2.076581
1772268237368,2.347794,118.818425,103.734154,-1.580169
1772268237372,2.381823,-32.906343,-33.496451,-3.351076
1772268237376,3.439666,-116.210331,-109.865850,-0.334761
1772268237380,6.012248,-72.461954,-66.259565,5.459795
1772268237384,7.582472,-95.504218,-68.480755,6.221371
1772268237387,8.546598,-153.971776,-112.230633,3.426064
1772268237391,7.532781,-65.537245,-50.249647,1.440745
1772268237395,4.358120,47.945100,34.904277,0.354934
1772268237399,1.812079,48.564330,31.953056,0.534251
1772268237403,-0.663040,42.577760,26.825811,0.778645
1772268237407,-2.430135,62.729288,43.934302,1.329725
1772268237411,-1.632216,58.173414,44.136541,2.469961
1772268237415,-0.445069,29.081762,30.750916,1.166145
1772268237419,-2.027681,-33.374751,-20.496094,-2.541662
1772268237423,-5.752167,-109.425538,-97.021469,-3.138835
1772268237427,-6.373995,-202.809829,-184.032850,3.787408
1772268237430,-2.961297,-203.056419,-172.698086,10.115180
1772268237434,-2.461048,63.932199,76.150340,2.128191
1772268237438,-7.846240,279.025965,259.017058,-14.080369
1772268237348,-1.928459,137.293559,124.084864,-18.228627
1772268237352,-6.741450,115.185344,92.106823,-13.946386
1772268237356,-7.253948,-21.430868,-30.524534,-3.790213
1772268237360,-3.354632,-25.837589,-32.721069,3.327068
1772268237364,0.470178,103.062860,86.783538,2.076581
1772268237368,2.347794,118.818425,103.734154,-1.580169
1772268237372,2.381823,-32.906343,-33.496451,-3.351076
1772268237376,3.439666,-116.210331,-109.865850,-0.334761
1772268237380,6.012248,-72.461954,-66.259565,5.459795
1772268237384,7.582472,-95.504218,-68.480755,6.221371
1772268237387,8.546598,-153.971776,-112.230633,3.426064
1772268237391,7.532781,-65.537245,-50.249647,1.440745
1772268237395,4.358120,47.945100,34.904277,0.354934
1772268237399,1.812079,48.564330,31.953056,0.534251
1772268237403,-0.663040,42.577760,26.825811,0.778645
1772268237407,-2.430135,62.729288,43.934302,1.329725
1772268237411,-1.632216,58.173414,44.136541,2.469961
1772268237415,-0.445069,29.081762,30.750916,1.166145
1772268237419,-2.027681,-33.374751,-20.496094,-2.541662
1772268237423,-5.752167,-109.425538,-97.021469,-3.138835
1772268237427,-6.373995,-202.809829,-184.032850,3.787408
1772268237430,-2.961297,-203.056419,-172.698086,10.115180
1772268237434,-2.461048,63.932199,76.150340,2.128191
1772268237438,-7.846240,279.025965,259.017058,-14.080369
1772268237442,-9.495764,82.763533,70.269199,-6.134208
1772268237446,-9.677893,91.715455,76.330339,-8.832392
1772268237450,-7.535453,184.470825,150.279736,-11.387543
1772268237454,-2.916138,222.372183,183.016791,-8.421684
1772268237458,2.923246,90.906608,71.846549,-0.780584
1772268237462,6.458072,-76.979210,-73.742659,5.653208
1772268237466,5.873702,-96.823871,-86.279897,6.757343
1772268237470,3.861967,-52.249982,-39.332570,2.370686
1772268237473,0.839068,-155.254819,-123.380364,-3.632405
1772268237477,-2.842989,-349.971964,-303.300467,-2.553139
1772268237481,-5.137185,-321.706374,-296.377853,5.759919
1772268237485,-5.305131,-7.503699,-18.254246,6.424768
1772268237348,-1.928459,137.293559,124.084864,-18.228627
1772268237352,-6.741450,115.185344,92.106823,-13.946386
1772268237356,-7.253948,-21.430868,-30.524534,-3.790213
1772268237360,-3.354632,-25.837589,-32.721069,3.327068
1772268237364,0.470178,103.062860,86.783538,2.076581
1772268237368,2.347794,118.818425,103.734154,-1.580169
1772268237372,2.381823,-32.906343,-33.496451,-3.351076
1772268237376,3.439666,-116.210331,-109.865850,-0.334761
1772268237380,6.012248,-72.461954,-66.259565,5.459795
1772268237384,7.582472,-95.504218,-68.480755,6.221371
1772268237387,8.546598,-153.971776,-112.230633,3.426064
1772268237391,7.532781,-65.537245,-50.249647,1.440745
1772268237395,4.358120,47.945100,34.904277,0.354934
1772268237399,1.812079,48.564330,31.953056,0.534251
1772268237403,-0.663040,42.577760,26.825811,0.778645
1772268237407,-2.430135,62.729288,43.934302,1.329725
1772268237411,-1.632216,58.173414,44.136541,2.469961
1772268237415,-0.445069,29.081762,30.750916,1.166145
1772268237419,-2.027681,-33.374751,-20.496094,-2.541662
1772268237423,-5.752167,-109.425538,-97.021469,-3.138835
1772268237427,-6.373995,-202.809829,-184.032850,3.787408
1772268237430,-2.961297,-203.056419,-172.698086,10.115180
1772268237434,-2.461048,63.932199,76.150340,2.128191
1772268237438,-7.846240,279.025965,259.017058,-14.080369
1772268237442,-9.495764,82.763533,70.269199,-6.134208
1772268237446,-9.677893,91.715455,76.330339,-8.832392
1772268237450,-7.535453,184.470825,150.279736,-11.387543
1772268237454,-2.916138,222.372183,183.016791,-8.421684
1772268237458,2.923246,90.906608,71.846549,-0.780584
1772268237462,6.458072,-76.979210,-73.742659,5.653208
1772268237466,5.873702,-96.823871,-86.279897,6.757343
1772268237470,3.861967,-52.249982,-39.332570,2.370686
1772268237473,0.839068,-155.254819,-123.380364,-3.632405
1772268237477,-2.842989,-349.971964,-303.300467,-2.553139
1772268237481,-5.137185,-321.706374,-296.377853,5.759919
1772268237485,-5.305131,-7.503699,-18.254246,6.424768
1772268237442,-9.495764,82.763533,70.269199,-6.134208
1772268237446,-9.677893,91.715455,76.330339,-8.832392
1772268237450,-7.535453,184.470825,150.279736,-11.387543
1772268237454,-2.916138,222.372183,183.016791,-8.421684
1772268237458,2.923246,90.906608,71.846549,-0.780584
1772268237462,6.458072,-76.979210,-73.742659,5.653208
1772268237466,5.873702,-96.823871,-86.279897,6.757343
1772268237470,3.861967,-52.249982,-39.332570,2.370686
1772268237473,0.839068,-155.254819,-123.380364,-3.632405
1772268237477,-2.842989,-349.971964,-303.300467,-2.553139
1772268237481,-5.137185,-321.706374,-296.377853,5.759919
1772268237485,-5.305131,-7.503699,-18.254246,6.424768
1772268237583,-0.377004,-153.050429,-109.793716,10.678795
1772268237587,-2.191387,-96.268831,-69.139046,9.406644
1772268237591,-3.449090,-1.271748,-0.372912,11.027135
1772268237594,-1.955516,-4.411579,-6.709726,13.986466
1772268237598,1.046432,-30.927458,-34.714501,15.290412
1772268237602,3.336846,-15.446486,-21.840088,17.059158
1772268237606,3.541342,-36.068006,-22.277610,16.734458
1772268237610,-0.207553,-75.076509,-38.500703,7.265734
1772268237614,-7.845128,-4.026640,16.802578,-5.240034
1772268237618,-12.249231,20.420543,8.106788,-6.582429
1772268237622,-8.290330,-102.349507,-120.578759,2.437999
1772268237626,-0.478185,-44.154061,-59.334086,7.297008
1772268237583,-0.377004,-153.050429,-109.793716,10.678795
1772268237587,-2.191387,-96.268831,-69.139046,9.406644
1772268237591,-3.449090,-1.271748,-0.372912,11.027135
1772268237594,-1.955516,-4.411579,-6.709726,13.986466
1772268237598,1.046432,-30.927458,-34.714501,15.290412
1772268237602,3.336846,-15.446486,-21.840088,17.059158
1772268237606,3.541342,-36.068006,-22.277610,16.734458
1772268237610,-0.207553,-75.076509,-38.500703,7.265734
1772268237614,-7.845128,-4.026640,16.802578,-5.240034
1772268237618,-12.249231,20.420543,8.106788,-6.582429
1772268237622,-8.290330,-102.349507,-120.578759,2.437999
1772268237626,-0.478185,-44.154061,-59.334086,7.297008
1772268237583,-0.377004,-153.050429,-109.793716,10.678795
1772268237587,-2.191387,-96.268831,-69.139046,9.406644
1772268237591,-3.449090,-1.271748,-0.372912,11.027135
1772268237594,-1.955516,-4.411579,-6.709726,13.986466
1772268237598,1.046432,-30.927458,-34.714501,15.290412
1772268237602,3.336846,-15.446486,-21.840088,17.059158
1772268237606,3.541342,-36.068006,-22.277610,16.734458
1772268237610,-0.207553,-75.076509,-38.500703,7.265734
1772268237614,-7.845128,-4.026640,16.802578,-5.240034
1772268237618,-12.249231,20.420543,8.106788,-6.582429
1772268237622,-8.290330,-102.349507,-120.578759,2.437999
1772268237626,-0.478185,-44.154061,-59.334086,7.297008
1772268237583,-0.377004,-153.050429,-109.793716,10.678795
1772268237587,-2.191387,-96.268831,-69.139046,9.406644
1772268237591,-3.449090,-1.271748,-0.372912,11.027135
1772268237594,-1.955516,-4.411579,-6.709726,13.986466
1772268237598,1.046432,-30.927458,-34.714501,15.290412
1772268237602,3.336846,-15.446486,-21.840088,17.059158
1772268237606,3.541342,-36.068006,-22.277610,16.734458
1772268237610,-0.207553,-75.076509,-38.500703,7.265734
1772268237614,-7.845128,-4.026640,16.802578,-5.240034
1772268237618,-12.249231,20.420543,8.106788,-6.582429
1772268237622,-8.290330,-102.349507,-120.578759,2.437999
1772268237626,-0.478185,-44.154061,-59.334086,7.297008
1772268237677,-6.065742,-0.174676,-34.391627,-5.094032
1772268237680,-5.025093,48.551897,18.064518,-3.646027
1772268237684,-1.771856,-46.208088,-58.657599,-3.816401
1772268237688,3.401589,-71.822690,-82.517235,-2.518485
1772268237692,10.185492,46.233355,20.661792,2.535370
1772268237696,17.518496,142.406619,117.563027,7.256532
1772268237700,20.659764,30.934339,33.202023,5.581103
1772268237704,17.099363,-201.576131,-169.606422,2.434954
1772268237708,12.276415,-319.793337,-285.038475,7.476159
1772268237712,9.959372,-243.075507,-221.463068,11.601443
1772268237716,9.132243,-75.389545,-58.018022,2.031880
1772268237719,6.201635,38.349056,46.326364,-14.752632
1772268237677,-6.065742,-0.174676,-34.391627,-5.094032
1772268237680,-5.025093,48.551897,18.064518,-3.646027
1772268237684,-1.771856,-46.208088,-58.657599,-3.816401
1772268237688,3.401589,-71.822690,-82.517235,-2.518485
1772268237692,10.185492,46.233355,20.661792,2.535370
1772268237696,17.518496,142.406619,117.563027,7.256532
1772268237700,20.659764,30.934339,33.202023,5.581103
1772268237704,17.099363,-201.576131,-169.606422,2.434954
1772268237708,12.276415,-319.793337,-285.038475,7.476159
1772268237712,9.959372,-243.075507,-221.463068,11.601443
1772268237716,9.132243,-75.389545,-58.018022,2.031880
1772268237719,6.201635,38.349056,46.326364,-14.752632
1772268237723,0.233993,-14.778124,-39.796374,-12.981873
1772268237727,3.659532,38.480987,4.880821,-7.431376
1772268237731,8.337276,-13.779987,-34.158547,-0.138680
1772268237735,9.620233,26.263307,2.354166,3.286442
1772268237739,11.164928,51.691786,13.706319,6.452174
1772268237743,9.525447,-37.777501,-64.950947,8.457834
1772268237747,2.982827,-141.367077,-133.638440,3.130753
1772268237751,2.153630,-122.152957,-94.107833,-1.711032
1772268237755,5.216728,-48.867435,-22.571115,-0.049096
1772268237759,1.691801,-150.594642,-125.907694,2.879234
1772268237762,-4.419046,-250.503879,-233.138329,9.021987
1772268237766,-2.719032,-34.599827,-34.982702,18.479304
1772268237723,0.233993,-14.778124,-39.796374,-12.981873
1772268237727,3.659532,38.480987,4.880821,-7.431376
1772268237731,8.337276,-13.779987,-34.158547,-0.138680
1772268237735,9.620233,26.263307,2.354166,3.286442
1772268237739,11.164928,51.691786,13.706319,6.452174
1772268237743,9.525447,-37.777501,-64.950947,8.457834
1772268237747,2.982827,-141.367077,-133.638440,3.130753
1772268237751,2.153630,-122.152957,-94.107833,-1.711032
1772268237755,5.216728,-48.867435,-22.571115,-0.049096
1772268237759,1.691801,-150.594642,-125.907694,2.879234
1772268237762,-4.419046,-250.503879,-233.138329,9.021987
1772268237766,-2.719032,-34.599827,-34.982702,18.479304
1772268237677,-6.065742,-0.174676,-34.391627,-5.094032
1772268237680,-5.025093,48.551897,18.064518,-3.646027
1772268237684,-1.771856,-46.208088,-58.657599,-3.816401
1772268237688,3.401589,-71.822690,-82.517235,-2.518485
1772268237692,10.185492,46.233355,20.661792,2.535370
1772268237696,17.518496,142.406619,117.563027,7.256532
1772268237700,20.659764,30.934339,33.202023,5.581103
1772268237704,17.099363,-201.576131,-169.606422,2.434954
1772268237708,12.276415,-319.793337,-285.038475,7.476159
1772268237712,9.959372,-243.075507,-221.463068,11.601443
1772268237716,9.132243,-75.389545,-58.018022,2.031880
1772268237719,6.201635,38.349056,46.326364,-14.752632
1772268237677,-6.065742,-0.174676,-34.391627,-5.094032
1772268237680,-5.025093,48.551897,18.064518,-3.646027
1772268237684,-1.771856,-46.208088,-58.657599,-3.816401
1772268237688,3.401589,-71.822690,-82.517235,-2.518485
1772268237692,10.185492,46.233355,20.661792,2.535370
1772268237696,17.518496,142.406619,117.563027,7.256532
1772268237700,20.659764,30.934339,33.202023,5.581103
1772268237704,17.099363,-201.576131,-169.606422,2.434954
1772268237708,12.276415,-319.793337,-285.038475,7.476159
1772268237712,9.959372,-243.075507,-221.463068,11.601443
1772268237716,9.132243,-75.389545,-58.018022,2.031880
1772268237719,6.201635,38.349056,46.326364,-14.752632
1772268237723,0.233993,-14.778124,-39.796374,-12.981873
1772268237727,3.659532,38.480987,4.880821,-7.431376
1772268237731,8.337276,-13.779987,-34.158547,-0.138680
1772268237735,9.620233,26.263307,2.354166,3.286442
1772268237739,11.164928,51.691786,13.706319,6.452174
1772268237743,9.525447,-37.777501,-64.950947,8.457834
1772268237747,2.982827,-141.367077,-133.638440,3.130753
1772268237751,2.153630,-122.152957,-94.107833,-1.711032
1772268237755,5.216728,-48.867435,-22.571115,-0.049096
1772268237759,1.691801,-150.594642,-125.907694,2.879234
1772268237762,-4.419046,-250.503879,-233.138329,9.021987
1772268237766,-2.719032,-34.599827,-34.982702,18.479304
1772268237723,0.233993,-14.778124,-39.796374,-12.981873
1772268237727,3.659532,38.480987,4.880821,-7.431376
1772268237731,8.337276,-13.779987,-34.158547,-0.138680
1772268237735,9.620233,26.263307,2.354166,3.286442
1772268237739,11.164928,51.691786,13.706319,6.452174
1772268237743,9.525447,-37.777501,-64.950947,8.457834
1772268237747,2.982827,-141.367077,-133.638440,3.130753
1772268237751,2.153630,-122.152957,-94.107833,-1.711032
1772268237755,5.216728,-48.867435,-22.571115,-0.049096
1772268237759,1.691801,-150.594642,-125.907694,2.879234
1772268237762,-4.419046,-250.503879,-233.138329,9.021987
1772268237766,-2.719032,-34.599827,-34.982702,18.479304
1772268237864,4.069814,125.952128,111.521135,2.941346
1772268237868,9.044308,101.249577,87.144887,2.821964
1772268237872,14.328219,153.997415,128.201511,0.757620
1772268237876,15.487372,178.950358,152.238050,-1.134104
1772268237880,12.665178,58.427957,47.994107,1.169275
1772268237884,8.931739,-65.873179,-61.740315,5.747431
1772268237887,8.992614,-25.438997,-21.096991,7.462816
1772268237891,11.288349,91.089636,97.039911,4.127210
1772268237895,7.994223,72.380005,93.364218,-2.085177
1772268237899,-0.215403,-109.937538,-83.106087,-4.665101
1772268237903,-6.007666,-236.293971,-221.513678,0.056411
1772268237907,-6.158790,-86.197196,-92.009707,4.960149
1772268237864,4.069814,125.952128,111.521135,2.941346
1772268237868,9.044308,101.249577,87.144887,2.821964
1772268237872,14.328219,153.997415,128.201511,0.757620
1772268237876,15.487372,178.950358,152.238050,-1.134104
1772268237880,12.665178,58.427957,47.994107,1.169275
1772268237884,8.931739,-65.873179,-61.740315,5.747431
1772268237887,8.992614,-25.438997,-21.096991,7.462816
1772268237891,11.288349,91.089636,97.039911,4.127210
1772268237895,7.994223,72.380005,93.364218,-2.085177
1772268237899,-0.215403,-109.937538,-83.106087,-4.665101
1772268237903,-6.007666,-236.293971,-221.513678,0.056411
1772268237907,-6.158790,-86.197196,-92.009707,4.960149
1772268237911,-12.022497,69.705773,53.555013,-9.086790
1772268237915,-18.356704,161.030588,131.596778,-12.023168
1772268237919,-21.652199,246.761571,204.077260,-12.673168
1772268237923,-21.888022,211.680144,183.316041,-8.650543
1772268237926,-17.263322,114.948031,117.093455,-5.176796
1772268237930,-9.863237,43.951600,58.060725,-4.591183
1772268237934,-4.208761,-16.281060,-2.494970,0.263722
1772268237938,-0.008001,-138.826938,-109.098694,8.728782
1772268237942,1.739048,-143.911198,-101.381754,6.695116
1772268237946,-1.544285,87.350742,112.384382,-9.266143
1772268237950,-8.345869,225.766693,226.048685,-26.197908
1772268237954,-15.767817,112.704621,97.246617,-30.324504
1772268237911,-12.022497,69.705773,53.555013,-9.086790
1772268237915,-18.356704,161.030588,131.596778,-12.023168
1772268237919,-21.652199,246.761571,204.077260,-12.673168
1772268237923,-21.888022,211.680144,183.316041,-8.650543
1772268237926,-17.263322,114.948031,117.093455,-5.176796
1772268237930,-9.863237,43.951600,58.060725,-4.591183
1772268237934,-4.208761,-16.281060,-2.494970,0.263722
1772268237938,-0.008001,-138.826938,-109.098694,8.728782
1772268237942,1.739048,-143.911198,-101.381754,6.695116
1772268237946,-1.544285,87.350742,112.384382,-9.266143
1772268237950,-8.345869,225.766693,226.048685,-26.197908
1772268237954,-15.767817,112.704621,97.246617,-30.324504
1772268237958,-11.956467,174.135880,158.432389,-26.501477
1772268237962,-10.488593,191.385599,162.749464,-25.222514
1772268237966,-6.910271,219.163222,183.497444,-19.045319
1772268237969,-2.459112,152.402866,128.309451,-11.250395
1772268237973,1.095051,90.609810,82.010214,-5.857194
1772268237977,3.197029,118.790311,120.130337,-3.524340
1772268237981,1.664618,88.965149,106.813227,-5.328337
1772268237985,-5.158796,-44.365089,-8.809804,-11.332204
1772268237989,-11.287866,-109.973604,-84.809991,-12.147655
1772268237993,-11.630034,-35.495802,-30.167942,-4.058269
1772268237997,-9.224246,111.189244,118.216282,1.164842
1772268238001,-9.481391,295.462589,295.985349,-3.875404
1772268237958,-11.956467,174.135880,158.432389,-26.501477
1772268237962,-10.488593,191.385599,162.749464,-25.222514
1772268237966,-6.910271,219.163222,183.497444,-19.045319
1772268237969,-2.459112,152.402866,128.309451,-11.250395
1772268237973,1.095051,90.609810,82.010214,-5.857194
1772268237977,3.197029,118.790311,120.130337,-3.524340
1772268237981,1.664618,88.965149,106.813227,-5.328337
1772268237985,-5.158796,-44.365089,-8.809804,-11.332204
1772268237989,-11.287866,-109.973604,-84.809991,-12.147655
1772268237993,-11.630034,-35.495802,-30.167942,-4.058269
1772268237997,-9.224246,111.189244,118.216282,1.164842
1772268238001,-9.481391,295.462589,295.985349,-3.875404
1772268238005,-10.866346,218.291189,195.145082,3.789231
1772268238009,-3.971521,242.398984,219.969006,7.327410
1772268238012,1.103568,165.176647,161.992625,7.991819
1772268238016,2.565467,109.109129,113.257482,3.602896
1772268238020,1.113989,116.293349,99.065546,-2.834245
1772268238024,-2.192803,110.221742,78.878021,-7.080315
1772268238028,-3.065609,17.340752,11.388452,-8.349499
1772268238032,-0.838967,-37.769749,-8.688542,-10.392957
1772268238036,0.080566,58.425319,83.845828,-13.000691
1772268238040,-1.276278,63.396366,65.454278,-10.551710
1772268238044,-1.436510,-152.294961,-141.675291,-3.573703
1772268238048,1.482752,-257.671362,-224.975862,-0.271259
1772268238005,-10.866346,218.291189,195.145082,3.789231
1772268238009,-3.971521,242.398984,219.969006,7.327410
1772268238012,1.103568,165.176647,161.992625,7.991819
1772268238016,2.565467,109.109129,113.257482,3.602896
1772268238020,1.113989,116.293349,99.065546,-2.834245
1772268238024,-2.192803,110.221742,78.878021,-7.080315
1772268238028,-3.065609,17.340752,11.388452,-8.349499
1772268238032,-0.838967,-37.769749,-8.688542,-10.392957
1772268238036,0.080566,58.425319,83.845828,-13.000691
1772268238040,-1.276278,63.396366,65.454278,-10.551710
1772268238044,-1.436510,-152.294961,-141.675291,-3.573703
1772268238048,1.482752,-257.671362,-224.975862,-0.271259
1772268238051,1.140410,-36.378337,-31.768681,-12.074297
1772268238055,2.805798,58.239311,48.286472,-7.676674
1772268238059,6.574804,61.586933,60.165703,0.298153
1772268238063,8.136518,113.411858,108.970633,7.123156
1772268238067,8.667064,200.870985,181.467027,9.230977
1772268238071,9.324703,134.007399,118.634752,6.301050
1772268238075,7.392425,-113.842228,-97.337388,3.421006
1772268238079,2.989563,-305.694905,-263.798193,5.880362
1772268238083,-1.174955,-187.250565,-152.759858,9.358196
1772268238087,-2.501828,56.494305,74.502183,5.218994
1772268238091,-3.052379,66.042193,80.356478,-5.454506
1772268238094,-5.769057,-117.112792,-107.194541,-9.467267
1772268238051,1.140410,-36.378337,-31.768681,-12.074297
1772268238055,2.805798,58.239311,48.286472,-7.676674
1772268238059,6.574804,61.586933,60.165703,0.298153
1772268238063,8.136518,113.411858,108.970633,7.123156
1772268238067,8.667064,200.870985,181.467027,9.230977
1772268238071,9.324703,134.007399,118.634752,6.301050
1772268238075,7.392425,-113.842228,-97.337388,3.421006
1772268238079,2.989563,-305.694905,-263.798193,5.880362
1772268238083,-1.174955,-187.250565,-152.759858,9.358196
1772268238087,-2.501828,56.494305,74.502183,5.218994
1772268238091,-3.052379,66.042193,80.356478,-5.454506
1772268238094,-5.769057,-117.112792,-107.194541,-9.467267
1772268238051,1.140410,-36.378337,-31.768681,-12.074297
1772268238055,2.805798,58.239311,48.286472,-7.676674
1772268238059,6.574804,61.586933,60.165703,0.298153
1772268238063,8.136518,113.411858,108.970633,7.123156
1772268238067,8.667064,200.870985,181.467027,9.230977
1772268238071,9.324703,134.007399,118.634752,6.301050
1772268238075,7.392425,-113.842228,-97.337388,3.421006
1772268238079,2.989563,-305.694905,-263.798193,5.880362
1772268238083,-1.174955,-187.250565,-152.759858,9.358196
1772268238087,-2.501828,56.494305,74.502183,5.218994
1772268238091,-3.052379,66.042193,80.356478,-5.454506
1772268238094,-5.769057,-117.112792,-107.194541,-9.467267
1772268238051,1.140410,-36.378337,-31.768681,-12.074297
1772268238055,2.805798,58.239311,48.286472,-7.676674
1772268238059,6.574804,61.586933,60.165703,0.298153
1772268238063,8.136518,113.411858,108.970633,7.123156
1772268238067,8.667064,200.870985,181.467027,9.230977
1772268238071,9.324703,134.007399,118.634752,6.301050
1772268238075,7.392425,-113.842228,-97.337388,3.421006
1772268238079,2.989563,-305.694905,-263.798193,5.880362
1772268238083,-1.174955,-187.250565,-152.759858,9.358196
1772268238087,-2.501828,56.494305,74.502183,5.218994
1772268238091,-3.052379,66.042193,80.356478,-5.454506
1772268238094,-5.769057,-117.112792,-107.194541,-9.467267
1772268237942,1.739048,-143.911198,-101.381754,6.695116
1772268237946,-1.544285,87.350742,112.384382,-9.266143
1772268237950,-8.345869,225.766693,226.048685,-26.197908
1772268237954,-15.767817,112.704621,97.246617,-30.324504
1772268237958,-11.956467,174.135880,158.432389,-26.501477
1772268237962,-10.488593,191.385599,162.749464,-25.222514
1772268237966,-6.910271,219.163222,183.497444,-19.045319
1772268237969,-2.459112,152.402866,128.309451,-11.250395
1772268237973,1.095051,90.609810,82.010214,-5.857194
1772268237977,3.197029,118.790311,120.130337,-3.524340
1772268237981,1.664618,88.965149,106.813227,-5.328337
1772268237985,-5.158796,-44.365089,-8.809804,-11.332204
1772268237989,-11.287866,-109.973604,-84.809991,-12.147655
1772268237993,-11.630034,-35.495802,-30.167942,-4.058269
1772268237997,-9.224246,111.189244,118.216282,1.164842
1772268238001,-9.481391,295.462589,295.985349,-3.875404
1772268237958,-11.956467,174.135880,158.432389,-26.501477
1772268237962,-10.488593,191.385599,162.749464,-25.222514
1772268237966,-6.910271,219.163222,183.497444,-19.045319
1772268237969,-2.459112,152.402866,128.309451,-11.250395
1772268237973,1.095051,90.609810,82.010214,-5.857194
1772268237977,3.197029,118.790311,120.130337,-3.524340
1772268237981,1.664618,88.965149,106.813227,-5.328337
1772268237985,-5.158796,-44.365089,-8.809804,-11.332204
1772268237989,-11.287866,-109.973604,-84.809991,-12.147655
1772268237993,-11.630034,-35.495802,-30.167942,-4.058269
1772268237997,-9.224246,111.189244,118.216282,1.164842
1772268238001,-9.481391,295.462589,295.985349,-3.875404
1772268238005,-10.866346,218.291189,195.145082,3.789231
1772268238009,-3.971521,242.398984,219.969006,7.327410
1772268238012,1.103568,165.176647,161.992625,7.991819
1772268238016,2.565467,109.109129,113.257482,3.602896
1772268238020,1.113989,116.293349,99.065546,-2.834245
1772268238024,-2.192803,110.221742,78.878021,-7.080315
1772268238028,-3.065609,17.340752,11.388452,-8.349499
1772268238032,-0.838967,-37.769749,-8.688542,-10.392957
1772268238036,0.080566,58.425319,83.845828,-13.000691
1772268238040,-1.276278,63.396366,65.454278,-10.551710
1772268238044,-1.436510,-152.294961,-141.675291,-3.573703
1772268238048,1.482752,-257.671362,-224.975862,-0.271259
1772268238005,-10.866346,218.291189,195.145082,3.789231
1772268238009,-3.971521,242.398984,219.969006,7.327410
1772268238012,1.103568,165.176647,161.992625,7.991819
1772268238016,2.565467,109.109129,113.257482,3.602896
1772268238020,1.113989,116.293349,99.065546,-2.834245
1772268238024,-2.192803,110.221742,78.878021,-7.080315
1772268238028,-3.065609,17.340752,11.388452,-8.349499
1772268238032,-0.838967,-37.769749,-8.688542,-10.392957
1772268238036,0.080566,58.425319,83.845828,-13.000691
1772268238040,-1.276278,63.396366,65.454278,-10.551710
1772268238044,-1.436510,-152.294961,-141.675291,-3.573703
1772268238048,1.482752,-257.671362,-224.975862,-0.271259
1772268238051,1.140410,-36.378337,-31.768681,-12.074297
1772268238055,2.805798,58.239311,48.286472,-7.676674
1772268238059,6.574804,61.586933,60.165703,0.298153
1772268238063,8.136518,113.411858,108.970633,7.123156
1772268238067,8.667064,200.870985,181.467027,9.230977
1772268238071,9.324703,134.007399,118.634752,6.301050
1772268238075,7.392425,-113.842228,-97.337388,3.421006
1772268238079,2.989563,-305.694905,-263.798193,5.880362
1772268238083,-1.174955,-187.250565,-152.759858,9.358196
1772268238087,-2.501828,56.494305,74.502183,5.218994
1772268238091,-3.052379,66.042193,80.356478,-5.454506
1772268238094,-5.769057,-117.112792,-107.194541,-9.467267
1772268238051,1.140410,-36.378337,-31.768681,-12.074297
1772268238055,2.805798,58.239311,48.286472,-7.676674
1772268238059,6.574804,61.586933,60.165703,0.298153
1772268238063,8.136518,113.411858,108.970633,7.123156
1772268238067,8.667064,200.870985,181.467027,9.230977
1772268238071,9.324703,134.007399,118.634752,6.301050
1772268238075,7.392425,-113.842228,-97.337388,3.421006
1772268238079,2.989563,-305.694905,-263.798193,5.880362
1772268238083,-1.174955,-187.250565,-152.759858,9.358196
1772268238087,-2.501828,56.494305,74.502183,5.218994
1772268238091,-3.052379,66.042193,80.356478,-5.454506
1772268238094,-5.769057,-117.112792,-107.194541,-9.467267
1772268238098,-0.623749,76.867750,60.090280,-2.653762
1772268238102,2.876310,78.251167,52.842355,1.141255
1772268238106,5.219599,2.753718,-12.579174,5.368729
1772268238110,6.584329,-13.699820,-31.762364,7.974027
1772268238114,8.060341,96.171741,62.748545,9.901127
1772268238118,9.232607,207.744136,172.270358,10.013264
1772268238122,7.234573,142.455746,131.073306,3.338715
1772268238126,1.664530,-46.377356,-35.396021,-8.143605
1772268238130,-4.174837,-193.243676,-185.200407,-13.025065
1772268238133,-8.044367,-194.651952,-190.928239,-8.002174
1772268238137,-8.844577,16.354823,15.356839,-5.089540
1772268238141,-8.358216,274.531472,256.620226,-12.463616
1772268238098,-0.623749,76.867750,60.090280,-2.653762
1772268238102,2.876310,78.251167,52.842355,1.141255
1772268238106,5.219599,2.753718,-12.579174,5.368729
1772268238110,6.584329,-13.699820,-31.762364,7.974027
1772268238114,8.060341,96.171741,62.748545,9.901127
1772268238118,9.232607,207.744136,172.270358,10.013264
1772268238122,7.234573,142.455746,131.073306,3.338715
1772268238126,1.664530,-46.377356,-35.396021,-8.143605
1772268238130,-4.174837,-193.243676,-185.200407,-13.025065
1772268238133,-8.044367,-194.651952,-190.928239,-8.002174
1772268238137,-8.844577,16.354823,15.356839,-5.089540
1772268238141,-8.358216,274.531472,256.620226,-12.463616
1772268238169,-13.966104,-56.884828,-78.461332,-5.926925
1772268238173,-13.858324,-58.095798,-76.910399,-8.118729
1772268238176,-13.854566,-17.198504,-35.387132,-13.666272
1772268238180,-18.711986,-68.272537,-80.899285,-21.959484
1772268238184,-30.408082,-62.206070,-89.348385,-31.986670
1772268238188,-46.800735,48.844889,-14.261555,-41.763177
1772268238192,-60.030048,122.076123,36.362057,-47.995316
1772268238196,-65.482394,174.134824,77.907506,-51.097904
1772268238200,-71.065211,226.202308,114.109739,-57.145165
1772268238204,-77.977667,232.566293,116.297708,-66.960948
1772268238208,-81.006545,172.396081,74.188420,-78.672567
1772268238212,-91.649840,82.129530,4.367496,-99.010178
1772268238216,-115.057726,10.725423,-60.985204,-124.964133
1772268238219,-132.684006,-77.018175,-143.529249,-139.107332
1772268238223,-136.595406,-152.838970,-192.416681,-141.059145
1772268238227,-137.535798,-72.884243,-94.041510,-145.954076
1772268238231,-142.871140,129.116453,82.231638,-156.758150
1772268238235,-148.443744,179.860768,98.901341,-160.597737
1772268238239,-137.992153,175.536740,114.869357,-144.272365
1772268238243,-132.847067,189.876526,132.963352,-137.122462
1772268238247,-127.906576,269.816346,205.551891,-129.332606
1772268238251,-113.054543,186.892907,142.473100,-114.038295
1772268238255,-91.704982,1.253218,5.259370,-92.856683
1772268238258,-71.068945,-59.041083,-18.838295,-72.231260
1772268238262,-51.727689,12.094987,62.646220,-55.892009
1772268238266,-35.499639,-9.824534,52.018705,-43.745849
1772268238270,-21.287243,-249.181487,-158.261989,-27.656147
1772268238274,-3.827969,-390.041535,-272.227525,-2.104567
1772268238278,16.688749,-166.408439,-46.544767,22.188703
1772268238282,30.708359,189.861618,288.315085,29.788863
1772268238286,35.595667,-2.546412,96.624606,40.385948
1772268238290,49.736497,23.642554,120.094257,53.749810
1772268238294,66.044907,119.120515,206.229221,65.588108
1772268238298,81.553655,108.810435,205.232756,75.648471
1772268238301,93.443880,-15.939200,94.908042,86.015782
1772268238305,100.524691,-119.109225,-4.071847,97.285847
1772268238309,105.405027,-168.705922,-49.821320,107.426953
1772268238313,109.785983,-159.040142,-24.657166,109.940244
1772268238317,111.346078,-85.721248,50.743028,103.451776
1772268238321,108.644798,-87.729186,22.453693,98.899824
1772268238325,105.676124,-254.363554,-162.100263,105.538838
1772268238329,108.553231,-302.391653,-216.747196,118.715536
1772268238333,119.540142,250.104025,299.280670,113.016472
1772268238337,118.168169,215.690791,255.160943,109.529601
1772268238372,94.931742,10.128052,32.418280,97.940255
1772268238376,94.376972,34.546085,53.714857,95.052413
1772268238380,93.387807,16.455377,30.028693,91.134327
1772268238383,91.623360,-25.870930,-9.654908,87.652751
1772268238387,86.755037,-90.726155,-64.170420,83.926524
1772268238391,79.270100,-120.437718,-95.710727,80.847207
1772268238395,72.853714,-34.593078,-26.320731,78.570934
1772268238399,70.420070,71.445471,69.689968,75.524983
1772268238403,70.351855,46.078914,61.516407,69.385171
1772268238407,67.945204,-88.151931,-50.758843,60.677175
1772268238411,60.352317,-172.421888,-146.946803,54.125640
1772268238415,52.715865,-145.993002,-142.813418,53.272080
1772268238419,51.790224,-80.838303,-70.371145,53.797123
1772268238423,54.290431,60.110741,79.736151,47.467021
1772268238340,116.291971,37.200397,87.395554,116.278074
1772268238344,111.389141,-113.950420,-56.069898,115.033725
1772268238348,110.034589,-106.320103,-48.804266,113.353164
1772268238352,109.536899,-11.291995,39.776055,109.179881
1772268238356,106.242901,-75.056412,-7.699998,104.118874
1772268238360,102.221745,-316.207595,-221.168125,101.659485
1772268238364,97.997587,-360.808091,-275.860410,99.645854
1772268238368,95.219867,-144.347764,-100.318919,98.353525
1772268238372,94.931742,10.128052,32.418280,97.940255
1772268238376,94.376972,34.546085,53.714857,95.052413
1772268238380,93.387807,16.455377,30.028693,91.134327
1772268238383,91.623360,-25.870930,-9.654908,87.652751
1772268238387,86.755037,-90.726155,-64.170420,83.926524
1772268238391,79.270100,-120.437718,-95.710727,80.847207
1772268238395,72.853714,-34.593078,-26.320731,78.570934
1772268238399,70.420070,71.445471,69.689968,75.524983
1772268238403,70.351855,46.078914,61.516407,69.385171
1772268238407,67.945204,-88.151931,-50.758843,60.677175
1772268238411,60.352317,-172.421888,-146.946803,54.125640
1772268238415,52.715865,-145.993002,-142.813418,53.272080
1772268238419,51.790224,-80.838303,-70.371145,53.797123
1772268238423,54.290431,60.110741,79.736151,47.467021
1772268238426,48.530497,21.360616,10.832056,46.447501
1772268238430,49.480178,49.122811,33.165614,48.072749
1772268238434,48.246665,-74.393860,-62.394247,48.150747
1772268238438,43.633130,-128.953715,-105.682212,43.410766
1772268238442,36.728335,-49.113496,-51.886171,35.941100
1772268238446,28.690397,-17.027508,-39.283190,31.388881
1772268238450,21.906478,-135.648194,-139.655606,29.555029
1772268238454,16.951519,-164.576322,-145.898115,23.220863
1772268238458,14.389842,-2.039288,3.543926,13.909021
1772268238462,11.248426,24.307015,9.177453,10.581101
1772268238465,5.101841,-206.265111,-215.673417,16.651219
1772268238469,3.229723,-325.618833,-327.232759,26.766887
1772268238426,48.530497,21.360616,10.832056,46.447501
1772268238430,49.480178,49.122811,33.165614,48.072749
1772268238434,48.246665,-74.393860,-62.394247,48.150747
1772268238438,43.633130,-128.953715,-105.682212,43.410766
1772268238442,36.728335,-49.113496,-51.886171,35.941100
1772268238446,28.690397,-17.027508,-39.283190,31.388881
1772268238450,21.906478,-135.648194,-139.655606,29.555029
1772268238454,16.951519,-164.576322,-145.898115,23.220863
1772268238458,14.389842,-2.039288,3.543926,13.909021
1772268238462,11.248426,24.307015,9.177453,10.581101
1772268238465,5.101841,-206.265111,-215.673417,16.651219
1772268238469,3.229723,-325.618833,-327.232759,26.766887
1772268238473,6.968223,18.031292,-12.941842,16.889102
1772268238477,9.524480,69.713340,32.887331,14.818676
1772268238481,11.633834,18.885222,-8.609247,14.672902
1772268238485,9.950031,57.848320,22.661027,13.487584
1772268238489,6.852975,153.621033,102.027716,8.311932
1772268238493,3.946634,151.775081,104.077118,1.300619
1772268238497,-1.973609,-28.572889,-47.978146,-3.796052
1772268238501,-9.764940,-278.983898,-271.681402,-3.330742
1772268238505,-12.719282,-341.591355,-322.324548,0.166259
1772268238508,-9.916480,-191.020524,-172.452824,-3.200931
1772268238512,-10.439077,20.237205,17.104585,-16.300509
1772268238516,-16.549510,87.028087,52.096132,-24.137282
1772268238520,-16.025185,27.949297,-20.873892,-9.588601
1772268238524,-10.485212,121.653226,72.942539,-4.917527
1772268238528,-6.265076,234.322141,188.821108,-8.274185
1772268238532,-8.257736,242.611462,194.028980,-16.149880
1772268238536,-16.121845,84.270898,43.201377,-20.960749
1772268238540,-23.008404,-106.010815,-128.780254,-20.204629
1772268238544,-24.761947,-148.724236,-155.612731,-19.666837
1772268238548,-23.180084,-73.153790,-76.472521,-25.110900
1772268238551,-21.823297,-72.789112,-73.230400,-32.009922
1772268238555,-21.912061,-167.096038,-156.712835,-31.651217
1772268238559,-21.425049,-149.888568,-149.319174,-24.966795
1772268238563,-19.200009,13.039304,-13.618530,-19.028122
1772268238567,-17.038722,101.323513,65.238843,-15.401794
1772268238571,-17.886616,95.533258,58.564988,-14.045831
1772268238575,-21.343433,135.293695,88.521428,-16.088652
1772268238579,-25.729352,155.142814,105.252478,-20.485856
1772268238583,-32.197166,62.411312,26.461973,-26.893822
1772268238587,-37.515783,-89.165061,-107.224299,-32.582200
1772268238590,-37.327351,-140.639244,-152.137988,-34.332954
1772268238594,-32.900786,-0.141343,-11.647750,-34.224926
1772268238598,-26.809339,67.252900,72.719968,-34.708248
1772268238602,-23.589403,-95.093981,-70.039305,-35.936298
1772268238606,-23.780384,-258.246919,-246.557346,-32.617077
1772268238610,-21.462674,-259.244510,-273.972618,-22.469064
1772268238520,-16.025185,27.949297,-20.873892,-9.588601
1772268238524,-10.485212,121.653226,72.942539,-4.917527
1772268238528,-6.265076,234.322141,188.821108,-8.274185
1772268238532,-8.257736,242.611462,194.028980,-16.149880
1772268238536,-16.121845,84.270898,43.201377,-20.960749
1772268238540,-23.008404,-106.010815,-128.780254,-20.204629
1772268238544,-24.761947,-148.724236,-155.612731,-19.666837
1772268238548,-23.180084,-73.153790,-76.472521,-25.110900
1772268238551,-21.823297,-72.789112,-73.230400,-32.009922
1772268238555,-21.912061,-167.096038,-156.712835,-31.651217
1772268238559,-21.425049,-149.888568,-149.319174,-24.966795
1772268238563,-19.200009,13.039304,-13.618530,-19.028122
1772268238567,-17.038722,101.323513,65.238843,-15.401794
1772268238571,-17.886616,95.533258,58.564988,-14.045831
1772268238575,-21.343433,135.293695,88.521428,-16.088652
1772268238579,-25.729352,155.142814,105.252478,-20.485856
1772268238583,-32.197166,62.411312,26.461973,-26.893822
1772268238587,-37.515783,-89.165061,-107.224299,-32.582200
1772268238590,-37.327351,-140.639244,-152.137988,-34.332954
1772268238594,-32.900786,-0.141343,-11.647750,-34.224926
1772268238598,-26.809339,67.252900,72.719968,-34.708248
1772268238602,-23.589403,-95.093981,-70.039305,-35.936298
1772268238606,-23.780384,-258.246919,-246.557346,-32.617077
1772268238610,-21.462674,-259.244510,-273.972618,-22.469064
1772268238614,-17.722574,-57.300965,-73.094496,-25.089622
1772268238618,-19.941365,29.724985,2.708372,-25.801239
1772268238622,-22.412996,149.578396,102.773815,-25.621666
1772268238626,-24.195225,121.061852,82.853360,-23.108636
1772268238630,-25.403033,11.895416,-0.177478,-22.052661
1772268238633,-26.483590,-8.252492,-7.929644,-21.669226
1772268238637,-28.281245,-20.075587,-20.118078,-19.395043
1772268238641,-30.351565,-172.474457,-164.313017,-18.149623
1772268238645,-28.895144,-306.879802,-278.107102,-18.708239
1772268238649,-22.150423,-179.622430,-148.713287,-18.163006
1772268238653,-15.682569,98.457016,104.361373,-19.178057
1772268238657,-13.515329,179.042647,157.905795,-20.878959
1772268238614,-17.722574,-57.300965,-73.094496,-25.089622
1772268238618,-19.941365,29.724985,2.708372,-25.801239
1772268238622,-22.412996,149.578396,102.773815,-25.621666
1772268238626,-24.195225,121.061852,82.853360,-23.108636
1772268238630,-25.403033,11.895416,-0.177478,-22.052661
1772268238633,-26.483590,-8.252492,-7.929644,-21.669226
1772268238637,-28.281245,-20.075587,-20.118078,-19.395043
1772268238641,-30.351565,-172.474457,-164.313017,-18.149623
1772268238645,-28.895144,-306.879802,-278.107102,-18.708239
1772268238649,-22.150423,-179.622430,-148.713287,-18.163006
1772268238653,-15.682569,98.457016,104.361373,-19.178057
1772268238657,-13.515329,179.042647,157.905795,-20.878959
1772268238661,-9.390643,86.669067,75.242409,-10.290624
1772268238665,-8.845062,121.621162,103.068520,-10.727514
1772268238669,-11.495109,163.154191,134.838155,-14.022831
1772268238672,-16.497818,76.822228,56.462422,-16.333025
1772268238676,-21.409631,-38.782175,-40.786186,-16.111541
1772268238680,-22.574228,-55.756005,-48.296476,-12.729980
1772268238684,-19.645310,28.806127,34.363988,-9.665084
1772268238688,-16.447074,23.025154,29.715418,-12.405890
1772268238692,-18.320812,-138.249076,-127.260213,-18.766236
1772268238696,-20.937933,-247.160662,-236.721286,-19.878215
1772268238700,-16.094976,-168.229661,-159.539204,-14.487744
1772268238704,-8.953991,110.213825,107.279550,-13.384534
1772268238661,-9.390643,86.669067,75.242409,-10.290624
1772268238665,-8.845062,121.621162,103.068520,-10.727514
1772268238669,-11.495109,163.154191,134.838155,-14.022831
1772268238672,-16.497818,76.822228,56.462422,-16.333025
1772268238676,-21.409631,-38.782175,-40.786186,-16.111541
1772268238680,-22.574228,-55.756005,-48.296476,-12.729980
1772268238684,-19.645310,28.806127,34.363988,-9.665084
1772268238688,-16.447074,23.025154,29.715418,-12.405890
1772268238692,-18.320812,-138.249076,-127.260213,-18.766236
1772268238696,-20.937933,-247.160662,-236.721286,-19.878215
1772268238700,-16.094976,-168.229661,-159.539204,-14.487744
1772268238704,-8.953991,110.213825,107.279550,-13.384534
1772268238661,-9.390643,86.669067,75.242409,-10.290624
1772268238665,-8.845062,121.621162,103.068520,-10.727514
1772268238669,-11.495109,163.154191,134.838155,-14.022831
1772268238672,-16.497818,76.822228,56.462422,-16.333025
1772268238676,-21.409631,-38.782175,-40.786186,-16.111541
1772268238680,-22.574228,-55.756005,-48.296476,-12.729980
1772268238684,-19.645310,28.806127,34.363988,-9.665084
1772268238688,-16.447074,23.025154,29.715418,-12.405890
1772268238692,-18.320812,-138.249076,-127.260213,-18.766236
1772268238696,-20.937933,-247.160662,-236.721286,-19.878215
1772268238700,-16.094976,-168.229661,-159.539204,-14.487744
1772268238704,-8.953991,110.213825,107.279550,-13.384534
1772268238661,-9.390643,86.669067,75.242409,-10.290624
1772268238665,-8.845062,121.621162,103.068520,-10.727514
1772268238669,-11.495109,163.154191,134.838155,-14.022831
1772268238672,-16.497818,76.822228,56.462422,-16.333025
1772268238676,-21.409631,-38.782175,-40.786186,-16.111541
1772268238680,-22.574228,-55.756005,-48.296476,-12.729980
1772268238684,-19.645310,28.806127,34.363988,-9.665084
1772268238688,-16.447074,23.025154,29.715418,-12.405890
1772268238692,-18.320812,-138.249076,-127.260213,-18.766236
1772268238696,-20.937933,-247.160662,-236.721286,-19.878215
1772268238700,-16.094976,-168.229661,-159.539204,-14.487744
1772268238704,-8.953991,110.213825,107.279550,-13.384534
1772268238801,-9.995218,156.242196,122.963312,-16.731147
1772268238805,-15.321684,124.272091,89.676423,-22.592049
1772268238809,-16.857704,22.728978,7.068099,-26.168328
1772268238813,-17.053926,29.412562,16.001725,-24.953101
1772268238817,-18.584827,152.255311,118.428624,-18.912785
1772268238821,-16.779716,205.793358,166.523444,-8.890456
1772268238825,-10.290385,110.025951,104.318120,-2.605262
1772268238829,-5.394614,-36.786063,-8.892410,-7.295881
1772268238833,-6.859486,-89.695631,-71.297652,-15.227617
1772268238837,-11.483571,-86.614645,-91.424226,-14.611850
1772268238840,-12.571949,-85.289623,-86.760507,-7.598098
1772268238844,-10.268085,39.855771,50.831010,-8.945590
1772268238801,-9.995218,156.242196,122.963312,-16.731147
1772268238805,-15.321684,124.272091,89.676423,-22.592049
1772268238809,-16.857704,22.728978,7.068099,-26.168328
1772268238813,-17.053926,29.412562,16.001725,-24.953101
1772268238817,-18.584827,152.255311,118.428624,-18.912785
1772268238821,-16.779716,205.793358,166.523444,-8.890456
1772268238825,-10.290385,110.025951,104.318120,-2.605262
1772268238829,-5.394614,-36.786063,-8.892410,-7.295881
1772268238833,-6.859486,-89.695631,-71.297652,-15.227617
1772268238837,-11.483571,-86.614645,-91.424226,-14.611850
1772268238840,-12.571949,-85.289623,-86.760507,-7.598098
1772268238844,-10.268085,39.855771,50.831010,-8.945590
1772268238801,-9.995218,156.242196,122.963312,-16.731147
1772268238805,-15.321684,124.272091,89.676423,-22.592049
1772268238809,-16.857704,22.728978,7.068099,-26.168328
1772268238813,-17.053926,29.412562,16.001725,-24.953101
1772268238817,-18.584827,152.255311,118.428624,-18.912785
1772268238821,-16.779716,205.793358,166.523444,-8.890456
1772268238825,-10.290385,110.025951,104.318120,-2.605262
1772268238829,-5.394614,-36.786063,-8.892410,-7.295881
1772268238833,-6.859486,-89.695631,-71.297652,-15.227617
1772268238837,-11.483571,-86.614645,-91.424226,-14.611850
1772268238840,-12.571949,-85.289623,-86.760507,-7.598098
1772268238844,-10.268085,39.855771,50.831010,-8.945590
1772268238801,-9.995218,156.242196,122.963312,-16.731147
1772268238805,-15.321684,124.272091,89.676423,-22.592049
1772268238809,-16.857704,22.728978,7.068099,-26.168328
1772268238813,-17.053926,29.412562,16.001725,-24.953101
1772268238817,-18.584827,152.255311,118.428624,-18.912785
1772268238821,-16.779716,205.793358,166.523444,-8.890456
1772268238825,-10.290385,110.025951,104.318120,-2.605262
1772268238829,-5.394614,-36.786063,-8.892410,-7.295881
1772268238833,-6.859486,-89.695631,-71.297652,-15.227617
1772268238837,-11.483571,-86.614645,-91.424226,-14.611850
1772268238840,-12.571949,-85.289623,-86.760507,-7.598098
1772268238844,-10.268085,39.855771,50.831010,-8.945590
1772268238848,-17.552590,71.633076,55.916070,-17.810613
1772268238852,-20.555165,140.771465,115.218901,-18.543213
1772268238856,-19.766594,132.582978,114.935442,-18.707958
1772268238860,-13.878195,192.983826,166.159134,-16.214117
1772268238864,-6.728109,256.357642,213.724255,-12.615665
1772268238868,-3.146947,153.956544,119.873017,-8.226919
1772268238872,-1.858558,-80.629202,-79.388250,-0.449665
1772268238876,1.208800,-147.430487,-118.328637,7.891777
1772268238879,5.458941,20.236603,45.621429,7.881790
1772268238883,5.826221,101.170351,119.394210,-0.983458
1772268238887,0.296894,-43.102407,-27.487776,-6.542327
1772268238891,-3.498752,-168.483950,-164.857183,0.101629
1772268238848,-17.552590,71.633076,55.916070,-17.810613
1772268238852,-20.555165,140.771465,115.218901,-18.543213
1772268238856,-19.766594,132.582978,114.935442,-18.707958
1772268238860,-13.878195,192.983826,166.159134,-16.214117
1772268238864,-6.728109,256.357642,213.724255,-12.615665
1772268238868,-3.146947,153.956544,119.873017,-8.226919
1772268238872,-1.858558,-80.629202,-79.388250,-0.449665
1772268238876,1.208800,-147.430487,-118.328637,7.891777
1772268238879,5.458941,20.236603,45.621429,7.881790
1772268238883,5.826221,101.170351,119.394210,-0.983458
1772268238887,0.296894,-43.102407,-27.487776,-6.542327
1772268238891,-3.498752,-168.483950,-164.857183,0.101629
