timestamp,TP9_uV,AF7_uV,AF8_uV,TP10_uV
1772267987862,-9.226889,45.114760,61.567368,6.258574
1772267987866,-5.148704,163.834518,160.018101,6.432601
1772267987870,-1.606057,281.352231,256.922046,7.792943
1772267987874,-0.034588,255.388170,238.508393,6.337894
1772267987878,4.523193,125.339717,134.449998,4.028546
1772267987882,7.775010,-2.341933,28.500111,8.098772
1772267987886,5.751242,-77.944321,-32.303495,19.254476
1772267987890,10.256731,-72.201009,-13.188735,25.824519
1772267987893,24.993459,-36.506599,29.241469,21.321057
1772267987897,36.701684,-28.406184,28.968382,12.784710
1772267987901,23.013363,-110.820650,-62.057846,11.112149
1772267987905,-9.824809,-147.428525,-106.418310,18.913448
1772267987862,-9.226889,45.114760,61.567368,6.258574
1772267987866,-5.148704,163.834518,160.018101,6.432601
1772267987870,-1.606057,281.352231,256.922046,7.792943
1772267987874,-0.034588,255.388170,238.508393,6.337894
1772267987878,4.523193,125.339717,134.449998,4.028546
1772267987882,7.775010,-2.341933,28.500111,8.098772
1772267987886,5.751242,-77.944321,-32.303495,19.254476
1772267987890,10.256731,-72.201009,-13.188735,25.824519
1772267987893,24.993459,-36.506599,29.241469,21.321057
1772267987897,36.701684,-28.406184,28.968382,12.784710
1772267987901,23.013363,-110.820650,-62.057846,11.112149
1772267987905,-9.824809,-147.428525,-106.418310,18.913448
1772267987909,7.821796,110.612753,124.288159,14.273432
1772267987913,3.466812,195.244022,196.366462,13.170449
1772267987917,-0.063658,266.820721,256.492806,10.180598
1772267987921,0.408908,203.477556,202.865061,6.184693
1772267987925,10.540871,104.794807,118.748218,2.334126
1772267987929,23.744313,87.566508,102.783963,-2.552021
1772267987932,24.516183,6.771894,32.340897,-1.360096
1772267987936,11.617407,-201.453707,-146.008343,7.306182
1772267987940,-5.252524,-244.776970,-182.793171,14.585277
1772267987944,-7.335552,-31.231774,4.271307,16.508626
1772267987948,15.696240,175.792323,189.089922,11.430493
1772267987952,31.803529,200.712113,201.986181,1.935258
1772267987909,7.821796,110.612753,124.288159,14.273432
1772267987913,3.466812,195.244022,196.366462,13.170449
1772267987917,-0.063658,266.820721,256.492806,10.180598
1772267987921,0.408908,203.477556,202.865061,6.184693
1772267987925,10.540871,104.794807,118.748218,2.334126
1772267987929,23.744313,87.566508,102.783963,-2.552021
1772267987932,24.516183,6.771894,32.340897,-1.360096
1772267987936,11.617407,-201.453707,-146.008343,7.306182
1772267987940,-5.252524,-244.776970,-182.793171,14.585277
1772267987944,-7.335552,-31.231774,4.271307,16.508626
1772267987948,15.696240,175.792323,189.089922,11.430493
1772267987952,31.803529,200.712113,201.986181,1.935258
1772267987909,7.821796,110.612753,124.288159,14.273432
1772267987913,3.466812,195.244022,196.366462,13.170449
1772267987917,-0.063658,266.820721,256.492806,10.180598
1772267987921,0.408908,203.477556,202.865061,6.184693
1772267987925,10.540871,104.794807,118.748218,2.334126
1772267987929,23.744313,87.566508,102.783963,-2.552021
1772267987932,24.516183,6.771894,32.340897,-1.360096
1772267987936,11.617407,-201.453707,-146.008343,7.306182
1772267987940,-5.252524,-244.776970,-182.793171,14.585277
1772267987944,-7.335552,-31.231774,4.271307,16.508626
1772267987948,15.696240,175.792323,189.089922,11.430493
1772267987952,31.803529,200.712113,201.986181,1.935258
1772267987909,7.821796,110.612753,124.288159,14.273432
1772267987913,3.466812,195.244022,196.366462,13.170449
1772267987917,-0.063658,266.820721,256.492806,10.180598
1772267987921,0.408908,203.477556,202.865061,6.184693
1772267987925,10.540871,104.794807,118.748218,2.334126
1772267987929,23.744313,87.566508,102.783963,-2.552021
1772267987932,24.516183,6.771894,32.340897,-1.360096
1772267987936,11.617407,-201.453707,-146.008343,7.306182
1772267987940,-5.252524,-244.776970,-182.793171,14.585277
1772267987944,-7.335552,-31.231774,4.271307,16.508626
1772267987948,15.696240,175.792323,189.089922,11.430493
1772267987952,31.803529,200.712113,201.986181,1.935258
1772267988003,4.450820,172.729367,174.471977,14.121094
1772267988007,9.291910,135.024627,144.427586,10.440377
1772267988011,7.136240,14.888879,41.907048,7.190180
1772267988015,-1.243350,31.648617,48.500881,4.984491
1772267988018,-7.454181,161.261431,148.711054,-0.080519
1772267988022,-16.053534,131.383246,119.407932,-4.688729
1772267988026,-29.641618,-117.187270,-84.945121,-3.684075
1772267988030,-30.991194,-221.965773,-159.503386,-2.313320
1772267988034,-15.688371,10.939161,45.460202,-6.579472
1772267988038,-0.467376,207.335697,204.926701,-14.735096
1772267988042,-9.253610,-10.416886,2.467807,-17.106517
1772267988046,-40.789238,-323.487111,-275.278886,-9.367638
1772267988003,4.450820,172.729367,174.471977,14.121094
1772267988007,9.291910,135.024627,144.427586,10.440377
1772267988011,7.136240,14.888879,41.907048,7.190180
1772267988015,-1.243350,31.648617,48.500881,4.984491
1772267988018,-7.454181,161.261431,148.711054,-0.080519
1772267988022,-16.053534,131.383246,119.407932,-4.688729
1772267988026,-29.641618,-117.187270,-84.945121,-3.684075
1772267988030,-30.991194,-221.965773,-159.503386,-2.313320
1772267988034,-15.688371,10.939161,45.460202,-6.579472
1772267988038,-0.467376,207.335697,204.926701,-14.735096
1772267988042,-9.253610,-10.416886,2.467807,-17.106517
1772267988046,-40.789238,-323.487111,-275.278886,-9.367638
1772267988097,2.598992,171.424335,144.733862,4.605840
1772267988100,6.560652,199.468932,167.422208,4.466454
1772267988104,1.429613,180.159062,150.248391,5.615274
1772267988108,-7.573999,154.248040,121.357784,5.723650
1772267988112,-19.158773,65.569602,40.064918,6.834997
1772267988116,-29.855643,-42.716502,-49.299315,9.957866
1772267988120,-28.749406,-49.047455,-46.692203,5.330978
1772267988124,-19.378615,7.975404,1.716431,-10.542752
1772267988128,-18.680095,-55.887045,-59.087087,-21.249475
1772267988132,-37.036888,-298.646970,-268.580649,-12.177349
1772267988136,-50.352823,-346.032967,-305.867856,4.545493
1772267988140,-26.015877,25.263836,19.959180,8.284535
1772267988097,2.598992,171.424335,144.733862,4.605840
1772267988100,6.560652,199.468932,167.422208,4.466454
1772267988104,1.429613,180.159062,150.248391,5.615274
1772267988108,-7.573999,154.248040,121.357784,5.723650
1772267988112,-19.158773,65.569602,40.064918,6.834997
1772267988116,-29.855643,-42.716502,-49.299315,9.957866
1772267988120,-28.749406,-49.047455,-46.692203,5.330978
1772267988124,-19.378615,7.975404,1.716431,-10.542752
1772267988128,-18.680095,-55.887045,-59.087087,-21.249475
1772267988132,-37.036888,-298.646970,-268.580649,-12.177349
1772267988136,-50.352823,-346.032967,-305.867856,4.545493
1772267988140,-26.015877,25.263836,19.959180,8.284535
1772267988143,6.647721,215.611010,172.096335,-3.580115
1772267988147,-7.896105,91.482425,58.162718,-4.727592
1772267988151,-27.642678,17.175685,-10.225499,-7.576204
1772267988155,-30.093021,44.119053,10.867010,-10.341551
1772267988159,-17.378225,130.806824,86.733163,-15.639935
1772267988163,-11.235867,130.906989,86.144037,-21.394361
1772267988167,-15.040040,-15.799929,-41.608035,-21.680375
1772267988171,-18.148156,-158.977232,-161.561091,-14.930397
1772267988175,-16.856729,-238.982872,-222.271276,-8.277020
1772267988179,-7.285395,-215.842498,-195.525129,-6.589643
1772267988182,3.185386,-77.544227,-83.021200,-4.517632
1772267988186,5.893939,23.320250,-7.238181,-1.265582
1772267988190,3.971400,25.735493,-7.691260,-0.653723
1772267988194,3.026298,43.465851,3.485326,1.158397
1772267988198,5.423287,120.125566,62.446321,5.224885
1772267988202,2.766628,99.320658,45.360192,3.276913
1772267988206,-0.202887,-28.920610,-54.071410,-2.007954
1772267988210,7.435042,-69.865104,-77.534142,0.991079
1772267988214,9.110525,-53.332393,-66.339226,2.264826
1772267988218,-8.473000,-143.155562,-156.889812,-9.350980
1772267988222,-37.839110,-323.978548,-314.649174,-19.566301
1772267988225,-49.610093,-305.804133,-286.038376,-22.761601
1772267988229,-17.452331,17.440014,3.498793,-24.823500
1772267988233,19.202843,208.933028,157.227904,-24.372592
1772267988143,6.647721,215.611010,172.096335,-3.580115
1772267988147,-7.896105,91.482425,58.162718,-4.727592
1772267988151,-27.642678,17.175685,-10.225499,-7.576204
1772267988155,-30.093021,44.119053,10.867010,-10.341551
1772267988159,-17.378225,130.806824,86.733163,-15.639935
1772267988163,-11.235867,130.906989,86.144037,-21.394361
1772267988167,-15.040040,-15.799929,-41.608035,-21.680375
1772267988171,-18.148156,-158.977232,-161.561091,-14.930397
1772267988175,-16.856729,-238.982872,-222.271276,-8.277020
1772267988179,-7.285395,-215.842498,-195.525129,-6.589643
1772267988182,3.185386,-77.544227,-83.021200,-4.517632
1772267988186,5.893939,23.320250,-7.238181,-1.265582
1772267988190,3.971400,25.735493,-7.691260,-0.653723
1772267988194,3.026298,43.465851,3.485326,1.158397
1772267988198,5.423287,120.125566,62.446321,5.224885
1772267988202,2.766628,99.320658,45.360192,3.276913
1772267988206,-0.202887,-28.920610,-54.071410,-2.007954
1772267988210,7.435042,-69.865104,-77.534142,0.991079
1772267988214,9.110525,-53.332393,-66.339226,2.264826
1772267988218,-8.473000,-143.155562,-156.889812,-9.350980
1772267988222,-37.839110,-323.978548,-314.649174,-19.566301
1772267988225,-49.610093,-305.804133,-286.038376,-22.761601
1772267988229,-17.452331,17.440014,3.498793,-24.823500
1772267988233,19.202843,208.933028,157.227904,-24.372592
1772267988143,6.647721,215.611010,172.096335,-3.580115
1772267988147,-7.896105,91.482425,58.162718,-4.727592
1772267988151,-27.642678,17.175685,-10.225499,-7.576204
1772267988155,-30.093021,44.119053,10.867010,-10.341551
1772267988159,-17.378225,130.806824,86.733163,-15.639935
1772267988163,-11.235867,130.906989,86.144037,-21.394361
1772267988167,-15.040040,-15.799929,-41.608035,-21.680375
1772267988171,-18.148156,-158.977232,-161.561091,-14.930397
1772267988175,-16.856729,-238.982872,-222.271276,-8.277020
1772267988179,-7.285395,-215.842498,-195.525129,-6.589643
1772267988182,3.185386,-77.544227,-83.021200,-4.517632
1772267988186,5.893939,23.320250,-7.238181,-1.265582
1772267988190,3.971400,25.735493,-7.691260,-0.653723
1772267988194,3.026298,43.465851,3.485326,1.158397
1772267988198,5.423287,120.125566,62.446321,5.224885
1772267988202,2.766628,99.320658,45.360192,3.276913
1772267988206,-0.202887,-28.920610,-54.071410,-2.007954
1772267988210,7.435042,-69.865104,-77.534142,0.991079
1772267988214,9.110525,-53.332393,-66.339226,2.264826
1772267988218,-8.473000,-143.155562,-156.889812,-9.350980
1772267988222,-37.839110,-323.978548,-314.649174,-19.566301
1772267988225,-49.610093,-305.804133,-286.038376,-22.761601
1772267988229,-17.452331,17.440014,3.498793,-24.823500
1772267988233,19.202843,208.933028,157.227904,-24.372592
1772267988237,-7.808667,-27.619514,-54.812670,-10.295327
1772267988241,-5.166624,46.191103,15.879480,-9.806965
1772267988245,4.536753,166.609264,129.101218,-7.129934
1772267988249,15.841859,138.166834,111.769942,-5.598251
1772267988253,18.444753,-15.592269,-24.807645,-4.734168
1772267988257,4.739340,-90.966390,-94.724603,-3.387290
1772267988261,-8.153553,-26.230159,-31.524508,-4.973947
1772267988264,1.937144,-10.376108,-16.012754,-10.693435
1772267988268,14.779560,-104.168429,-106.899203,-20.513700
1772267988272,-5.188810,-227.267658,-220.592668,-22.974271
1772267988276,-37.121326,-262.495976,-249.514356,-9.000992
1772267988280,-32.129812,-17.317598,-21.334580,3.009680
1772267988237,-7.808667,-27.619514,-54.812670,-10.295327
1772267988241,-5.166624,46.191103,15.879480,-9.806965
1772267988245,4.536753,166.609264,129.101218,-7.129934
1772267988249,15.841859,138.166834,111.769942,-5.598251
1772267988253,18.444753,-15.592269,-24.807645,-4.734168
1772267988257,4.739340,-90.966390,-94.724603,-3.387290
1772267988261,-8.153553,-26.230159,-31.524508,-4.973947
1772267988264,1.937144,-10.376108,-16.012754,-10.693435
1772267988268,14.779560,-104.168429,-106.899203,-20.513700
1772267988272,-5.188810,-227.267658,-220.592668,-22.974271
1772267988276,-37.121326,-262.495976,-249.514356,-9.000992
1772267988280,-32.129812,-17.317598,-21.334580,3.009680
1772267988284,-10.310419,18.840435,12.941591,3.724412
1772267988288,-17.480904,96.767600,79.472116,-3.619579
1772267988292,-33.838362,113.768556,87.539817,-13.849093
1772267988296,-35.691299,30.137830,11.637528,-17.213544
1772267988300,-18.599419,-22.048950,-36.691044,-29.966130
1772267988304,-10.754127,-90.092356,-104.002140,-46.021416
1772267988307,-10.049742,-245.872775,-239.494453,-42.073158
1772267988311,3.284873,-323.660788,-291.868493,-24.391065
1772267988315,27.950547,-129.746493,-110.251683,-7.357215
1772267988319,54.237776,127.219205,115.040121,7.458088
1772267988323,42.052126,17.855699,7.116466,2.158913
1772267988327,-19.140506,-249.254315,-251.829552,-20.033001
1772267988284,-10.310419,18.840435,12.941591,3.724412
1772267988288,-17.480904,96.767600,79.472116,-3.619579
1772267988292,-33.838362,113.768556,87.539817,-13.849093
1772267988296,-35.691299,30.137830,11.637528,-17.213544
1772267988300,-18.599419,-22.048950,-36.691044,-29.966130
1772267988304,-10.754127,-90.092356,-104.002140,-46.021416
1772267988307,-10.049742,-245.872775,-239.494453,-42.073158
1772267988311,3.284873,-323.660788,-291.868493,-24.391065
1772267988315,27.950547,-129.746493,-110.251683,-7.357215
1772267988319,54.237776,127.219205,115.040121,7.458088
1772267988323,42.052126,17.855699,7.116466,2.158913
1772267988327,-19.140506,-249.254315,-251.829552,-20.033001
1772267988331,-4.759981,85.166089,46.567427,-0.513475
1772267988335,-0.107862,145.053742,98.511521,28.239137
1772267988339,0.584600,84.618161,48.078382,25.999889
1772267988343,9.478967,-26.538323,-52.682995,2.051185
1772267988347,26.555771,-31.856657,-61.648478,-0.254005
1772267988350,36.726097,23.448570,-5.131187,18.538686
1772267988354,33.792803,-94.390187,-95.953810,21.420696
1772267988358,23.306754,-298.274358,-278.013130,0.756684
1772267988362,13.514444,-314.819127,-310.193329,-2.367617
1772267988366,19.183124,-99.006687,-122.607046,23.599257
1772267988370,52.249481,189.324818,147.678354,40.323771
1772267988374,78.028748,286.473643,231.858484,38.820968
1772267988331,-4.759981,85.166089,46.567427,-0.513475
1772267988335,-0.107862,145.053742,98.511521,28.239137
1772267988339,0.584600,84.618161,48.078382,25.999889
1772267988343,9.478967,-26.538323,-52.682995,2.051185
1772267988347,26.555771,-31.856657,-61.648478,-0.254005
1772267988350,36.726097,23.448570,-5.131187,18.538686
1772267988354,33.792803,-94.390187,-95.953810,21.420696
1772267988358,23.306754,-298.274358,-278.013130,0.756684
1772267988362,13.514444,-314.819127,-310.193329,-2.367617
1772267988366,19.183124,-99.006687,-122.607046,23.599257
1772267988370,52.249481,189.324818,147.678354,40.323771
1772267988374,78.028748,286.473643,231.858484,38.820968
1772267988378,43.023315,120.678692,76.179542,60.133902
1772267988382,45.004996,125.541863,88.703896,66.361845
1772267988386,54.326353,40.780203,18.128520,50.072254
1772267988389,58.950001,39.960784,8.690326,25.372049
1772267988393,37.656626,87.647962,34.503934,2.997451
1772267988397,14.026637,52.841743,1.779128,3.457472
1772267988401,15.089713,-21.311746,-41.151963,19.193467
1772267988405,29.389240,-60.146059,-53.401913,20.966456
1772267988409,35.283291,-64.017398,-58.735015,9.050675
1772267988413,17.094387,-182.051530,-176.597875,1.184958
1772267988417,-6.346640,-356.431503,-328.660673,5.885560
1772267988421,1.016572,-215.325333,-188.188916,13.675227
1772267988378,43.023315,120.678692,76.179542,60.133902
1772267988382,45.004996,125.541863,88.703896,66.361845
1772267988386,54.326353,40.780203,18.128520,50.072254
1772267988389,58.950001,39.960784,8.690326,25.372049
1772267988393,37.656626,87.647962,34.503934,2.997451
1772267988397,14.026637,52.841743,1.779128,3.457472
1772267988401,15.089713,-21.311746,-41.151963,19.193467
1772267988405,29.389240,-60.146059,-53.401913,20.966456
1772267988409,35.283291,-64.017398,-58.735015,9.050675
1772267988413,17.094387,-182.051530,-176.597875,1.184958
1772267988417,-6.346640,-356.431503,-328.660673,5.885560
1772267988421,1.016572,-215.325333,-188.188916,13.675227
1772267988378,43.023315,120.678692,76.179542,60.133902
1772267988382,45.004996,125.541863,88.703896,66.361845
1772267988386,54.326353,40.780203,18.128520,50.072254
1772267988389,58.950001,39.960784,8.690326,25.372049
1772267988393,37.656626,87.647962,34.503934,2.997451
1772267988397,14.026637,52.841743,1.779128,3.457472
1772267988401,15.089713,-21.311746,-41.151963,19.193467
1772267988405,29.389240,-60.146059,-53.401913,20.966456
1772267988409,35.283291,-64.017398,-58.735015,9.050675
1772267988413,17.094387,-182.051530,-176.597875,1.184958
1772267988417,-6.346640,-356.431503,-328.660673,5.885560
1772267988421,1.016572,-215.325333,-188.188916,13.675227
1772267988378,43.023315,120.678692,76.179542,60.133902
1772267988382,45.004996,125.541863,88.703896,66.361845
1772267988386,54.326353,40.780203,18.128520,50.072254
1772267988389,58.950001,39.960784,8.690326,25.372049
1772267988393,37.656626,87.647962,34.503934,2.997451
1772267988397,14.026637,52.841743,1.779128,3.457472
1772267988401,15.089713,-21.311746,-41.151963,19.193467
1772267988405,29.389240,-60.146059,-53.401913,20.966456
1772267988409,35.283291,-64.017398,-58.735015,9.050675
1772267988413,17.094387,-182.051530,-176.597875,1.184958
1772267988417,-6.346640,-356.431503,-328.660673,5.885560
1772267988421,1.016572,-215.325333,-188.188916,13.675227
1772267988471,-29.689013,23.330809,65.891844,-26.625118
1772267988475,-37.996701,62.411354,84.839009,-23.473214
1772267988479,-30.906208,21.715860,40.749469,-10.110786
1772267988483,-19.045739,14.679875,39.682205,-12.287533
1772267988487,-16.632169,36.387895,79.000050,-23.339437
1772267988491,-17.916533,74.198110,134.592632,-26.415942
1772267988495,-12.691890,29.766898,94.381815,-27.165557
1772267988499,-11.544163,-122.469329,-59.303608,-25.543734
1772267988503,-33.331777,-309.215580,-243.111842,-15.537620
1772267988507,-51.993334,-314.745424,-253.746432,-4.297405
1772267988511,-31.915826,34.835425,74.749998,-5.423539
1772267988514,4.576594,329.128388,346.051705,-20.996325
1772267988471,-29.689013,23.330809,65.891844,-26.625118
1772267988475,-37.996701,62.411354,84.839009,-23.473214
1772267988479,-30.906208,21.715860,40.749469,-10.110786
1772267988483,-19.045739,14.679875,39.682205,-12.287533
1772267988487,-16.632169,36.387895,79.000050,-23.339437
1772267988491,-17.916533,74.198110,134.592632,-26.415942
1772267988495,-12.691890,29.766898,94.381815,-27.165557
1772267988499,-11.544163,-122.469329,-59.303608,-25.543734
1772267988503,-33.331777,-309.215580,-243.111842,-15.537620
1772267988507,-51.993334,-314.745424,-253.746432,-4.297405
1772267988511,-31.915826,34.835425,74.749998,-5.423539
1772267988514,4.576594,329.128388,346.051705,-20.996325
1772267988471,-29.689013,23.330809,65.891844,-26.625118
1772267988475,-37.996701,62.411354,84.839009,-23.473214
1772267988479,-30.906208,21.715860,40.749469,-10.110786
1772267988483,-19.045739,14.679875,39.682205,-12.287533
1772267988487,-16.632169,36.387895,79.000050,-23.339437
1772267988491,-17.916533,74.198110,134.592632,-26.415942
1772267988495,-12.691890,29.766898,94.381815,-27.165557
1772267988499,-11.544163,-122.469329,-59.303608,-25.543734
1772267988503,-33.331777,-309.215580,-243.111842,-15.537620
1772267988507,-51.993334,-314.745424,-253.746432,-4.297405
1772267988511,-31.915826,34.835425,74.749998,-5.423539
1772267988514,4.576594,329.128388,346.051705,-20.996325
1772267988471,-29.689013,23.330809,65.891844,-26.625118
1772267988475,-37.996701,62.411354,84.839009,-23.473214
1772267988479,-30.906208,21.715860,40.749469,-10.110786
1772267988483,-19.045739,14.679875,39.682205,-12.287533
1772267988487,-16.632169,36.387895,79.000050,-23.339437
1772267988491,-17.916533,74.198110,134.592632,-26.415942
1772267988495,-12.691890,29.766898,94.381815,-27.165557
1772267988499,-11.544163,-122.469329,-59.303608,-25.543734
1772267988503,-33.331777,-309.215580,-243.111842,-15.537620
1772267988507,-51.993334,-314.745424,-253.746432,-4.297405
1772267988511,-31.915826,34.835425,74.749998,-5.423539
1772267988514,4.576594,329.128388,346.051705,-20.996325
1772267988518,-17.131087,53.123988,101.226830,-6.590014
1772267988522,-17.988942,5.376906,58.866475,-10.751605
1772267988526,-14.830554,43.761348,83.829090,-18.199772
1772267988530,-11.580644,134.883233,159.006199,-22.391086
1772267988534,-17.713173,52.188680,86.446179,-13.697062
1772267988538,-33.923486,-92.263104,-39.932322,-0.691129
1772267988542,-43.602578,-62.244129,-13.086296,-0.865781
1772267988546,-35.232278,79.237940,116.993226,-15.428051
1772267988550,-20.801036,69.736083,119.147823,-22.796918
1772267988554,-22.715275,-179.257459,-105.879172,-8.109320
1772267988557,-41.643134,-315.120966,-248.092314,13.475055
1772267988561,-53.576097,-61.864512,-30.627223,10.811649
1772267988518,-17.131087,53.123988,101.226830,-6.590014
1772267988522,-17.988942,5.376906,58.866475,-10.751605
1772267988526,-14.830554,43.761348,83.829090,-18.199772
1772267988530,-11.580644,134.883233,159.006199,-22.391086
1772267988534,-17.713173,52.188680,86.446179,-13.697062
1772267988538,-33.923486,-92.263104,-39.932322,-0.691129
1772267988542,-43.602578,-62.244129,-13.086296,-0.865781
1772267988546,-35.232278,79.237940,116.993226,-15.428051
1772267988550,-20.801036,69.736083,119.147823,-22.796918
1772267988554,-22.715275,-179.257459,-105.879172,-8.109320
1772267988557,-41.643134,-315.120966,-248.092314,13.475055
1772267988561,-53.576097,-61.864512,-30.627223,10.811649
1772267988565,-30.422240,245.029884,247.047807,-16.634925
1772267988569,-30.435887,169.286598,182.121293,-14.318432
1772267988573,-40.797467,35.919120,54.243741,-3.963659
1772267988577,-50.052795,-31.239684,-7.424823,6.763801
1772267988581,-41.321966,39.280082,65.191229,6.522101
1772267988585,-12.597964,111.552613,135.687174,-3.048930
1772267988589,13.201094,24.571709,56.852998,-9.915430
1772267988593,14.333668,-208.526256,-151.590289,-6.199145
1772267988596,1.167524,-354.477650,-279.070957,-0.116727
1772267988600,-6.271521,-168.840169,-117.483976,-5.031305
1772267988604,-6.071157,115.185846,122.908198,-15.599486
1772267988608,-5.758753,136.189907,132.884215,-19.871482
1772267988612,-10.067939,24.835509,27.030779,-17.020362
1772267988616,-19.730447,84.669128,68.491293,-11.798330
1772267988620,-29.961181,241.680110,201.525386,-11.440043
1772267988624,-32.972837,185.429331,155.720731,-13.632817
1772267988628,-25.767207,14.643348,12.591646,-11.253317
1772267988632,-14.914564,20.814828,22.115081,-10.015793
1772267988636,-4.210450,100.098389,87.841391,-13.979777
1772267988639,2.100445,45.543335,32.785517,-13.305962
1772267988643,-6.229017,-115.135829,-113.982838,-3.558606
1772267988647,-13.884122,-140.548252,-133.742123,5.204893
1772267988651,3.596112,54.429472,52.789737,5.937117
1772267988655,29.492342,205.408770,195.297246,-2.078599
1772267988565,-30.422240,245.029884,247.047807,-16.634925
1772267988569,-30.435887,169.286598,182.121293,-14.318432
1772267988573,-40.797467,35.919120,54.243741,-3.963659
1772267988577,-50.052795,-31.239684,-7.424823,6.763801
1772267988581,-41.321966,39.280082,65.191229,6.522101
1772267988585,-12.597964,111.552613,135.687174,-3.048930
1772267988589,13.201094,24.571709,56.852998,-9.915430
1772267988593,14.333668,-208.526256,-151.590289,-6.199145
1772267988596,1.167524,-354.477650,-279.070957,-0.116727
1772267988600,-6.271521,-168.840169,-117.483976,-5.031305
1772267988604,-6.071157,115.185846,122.908198,-15.599486
1772267988608,-5.758753,136.189907,132.884215,-19.871482
1772267988612,-10.067939,24.835509,27.030779,-17.020362
1772267988616,-19.730447,84.669128,68.491293,-11.798330
1772267988620,-29.961181,241.680110,201.525386,-11.440043
1772267988624,-32.972837,185.429331,155.720731,-13.632817
1772267988628,-25.767207,14.643348,12.591646,-11.253317
1772267988632,-14.914564,20.814828,22.115081,-10.015793
1772267988636,-4.210450,100.098389,87.841391,-13.979777
1772267988639,2.100445,45.543335,32.785517,-13.305962
1772267988643,-6.229017,-115.135829,-113.982838,-3.558606
1772267988647,-13.884122,-140.548252,-133.742123,5.204893
1772267988651,3.596112,54.429472,52.789737,5.937117
1772267988655,29.492342,205.408770,195.297246,-2.078599
1772267988565,-30.422240,245.029884,247.047807,-16.634925
1772267988569,-30.435887,169.286598,182.121293,-14.318432
1772267988573,-40.797467,35.919120,54.243741,-3.963659
1772267988577,-50.052795,-31.239684,-7.424823,6.763801
1772267988581,-41.321966,39.280082,65.191229,6.522101
1772267988585,-12.597964,111.552613,135.687174,-3.048930
1772267988589,13.201094,24.571709,56.852998,-9.915430
1772267988593,14.333668,-208.526256,-151.590289,-6.199145
1772267988596,1.167524,-354.477650,-279.070957,-0.116727
1772267988600,-6.271521,-168.840169,-117.483976,-5.031305
1772267988604,-6.071157,115.185846,122.908198,-15.599486
1772267988608,-5.758753,136.189907,132.884215,-19.871482
1772267988612,-10.067939,24.835509,27.030779,-17.020362
1772267988616,-19.730447,84.669128,68.491293,-11.798330
1772267988620,-29.961181,241.680110,201.525386,-11.440043
1772267988624,-32.972837,185.429331,155.720731,-13.632817
1772267988628,-25.767207,14.643348,12.591646,-11.253317
1772267988632,-14.914564,20.814828,22.115081,-10.015793
1772267988636,-4.210450,100.098389,87.841391,-13.979777
1772267988639,2.100445,45.543335,32.785517,-13.305962
1772267988643,-6.229017,-115.135829,-113.982838,-3.558606
1772267988647,-13.884122,-140.548252,-133.742123,5.204893
1772267988651,3.596112,54.429472,52.789737,5.937117
1772267988655,29.492342,205.408770,195.297246,-2.078599
1772267988706,-13.329905,139.576738,121.390597,7.496260
1772267988710,-9.389673,151.496800,127.651851,2.714724
1772267988714,3.993425,119.399780,97.115554,-0.236547
1772267988718,12.389091,127.359268,107.272666,0.977762
1772267988721,23.944138,216.943753,189.824835,0.056277
1772267988725,38.827804,165.146924,145.714227,-1.899195
1772267988729,39.623038,-96.932406,-77.620225,0.937997
1772267988733,25.519530,-240.483186,-196.316692,13.081376
1772267988737,23.549819,6.964638,23.416982,31.712683
1772267988741,40.302021,337.471957,315.971477,34.203523
1772267988745,48.409483,263.872894,246.280455,7.196569
1772267988749,27.873234,-92.006705,-83.361544,-18.060817
1772267988753,17.651439,144.304273,125.274853,-16.154175
1772267988757,15.856472,167.704002,145.404848,-5.645077
1772267988761,16.633436,78.638751,75.346087,-11.172835
1772267988764,8.954118,26.065009,30.366638,-22.422811
1772267988768,1.699414,154.627007,140.394721,-19.965556
1772267988772,7.417728,318.889326,289.919758,-14.281304
1772267988776,18.072235,230.370937,221.647866,-15.327028
1772267988780,17.138615,-92.724735,-59.298349,-16.059393
1772267988784,5.759736,-347.403898,-291.806565,-13.131323
1772267988788,5.637308,-283.199524,-238.186760,-6.006160
1772267988792,28.161018,7.654106,31.136167,0.211490
1772267988796,58.932564,232.586894,234.486584,-7.023036
1772267988753,17.651439,144.304273,125.274853,-16.154175
1772267988757,15.856472,167.704002,145.404848,-5.645077
1772267988761,16.633436,78.638751,75.346087,-11.172835
1772267988764,8.954118,26.065009,30.366638,-22.422811
1772267988768,1.699414,154.627007,140.394721,-19.965556
1772267988772,7.417728,318.889326,289.919758,-14.281304
1772267988776,18.072235,230.370937,221.647866,-15.327028
1772267988780,17.138615,-92.724735,-59.298349,-16.059393
1772267988784,5.759736,-347.403898,-291.806565,-13.131323
1772267988788,5.637308,-283.199524,-238.186760,-6.006160
1772267988792,28.161018,7.654106,31.136167,0.211490
1772267988796,58.932564,232.586894,234.486584,-7.023036
1772267988800,28.457049,71.452485,66.392175,-10.677083
1772267988803,23.745642,106.286103,97.676948,-15.710760
1772267988807,26.350908,28.925544,38.470837,-13.872799
1772267988811,30.773997,64.754109,69.032412,-3.864913
1772267988815,25.752942,88.593473,75.206857,1.995247
1772267988819,18.771701,-21.060009,-29.730449,-5.350856
1772267988823,20.087911,-146.595272,-129.604424,-6.936727
1772267988827,33.978567,-73.495768,-49.650551,4.543506
1772267988831,44.246234,102.026322,105.105759,10.171663
1772267988835,24.776954,-47.052028,-41.726989,6.498855
1772267988839,-8.751168,-363.847152,-332.917074,8.743718
1772267988843,-14.135736,-283.199353,-257.820515,19.581271
1772267988800,28.457049,71.452485,66.392175,-10.677083
1772267988803,23.745642,106.286103,97.676948,-15.710760
1772267988807,26.350908,28.925544,38.470837,-13.872799
1772267988811,30.773997,64.754109,69.032412,-3.864913
1772267988815,25.752942,88.593473,75.206857,1.995247
1772267988819,18.771701,-21.060009,-29.730449,-5.350856
1772267988823,20.087911,-146.595272,-129.604424,-6.936727
1772267988827,33.978567,-73.495768,-49.650551,4.543506
1772267988831,44.246234,102.026322,105.105759,10.171663
1772267988835,24.776954,-47.052028,-41.726989,6.498855
1772267988839,-8.751168,-363.847152,-332.917074,8.743718
1772267988843,-14.135736,-283.199353,-257.820515,19.581271
1772267988800,28.457049,71.452485,66.392175,-10.677083
1772267988803,23.745642,106.286103,97.676948,-15.710760
1772267988807,26.350908,28.925544,38.470837,-13.872799
1772267988811,30.773997,64.754109,69.032412,-3.864913
1772267988815,25.752942,88.593473,75.206857,1.995247
1772267988819,18.771701,-21.060009,-29.730449,-5.350856
1772267988823,20.087911,-146.595272,-129.604424,-6.936727
1772267988827,33.978567,-73.495768,-49.650551,4.543506
1772267988831,44.246234,102.026322,105.105759,10.171663
1772267988835,24.776954,-47.052028,-41.726989,6.498855
1772267988839,-8.751168,-363.847152,-332.917074,8.743718
1772267988843,-14.135736,-283.199353,-257.820515,19.581271
1772267988846,12.998863,92.920317,68.462219,11.634600
1772267988850,-0.589777,148.784405,111.581686,6.359353
1772267988854,-12.707103,88.959357,56.457051,3.898197
1772267988858,-7.075127,86.911885,55.505273,2.152165
1772267988862,9.713504,150.564021,117.076646,-1.665883
1772267988866,21.245670,112.903869,86.685864,3.260167
1772267988870,21.640742,-84.287175,-87.028135,14.522916
1772267988874,3.474294,-285.256743,-263.990572,19.441364
1772267988878,-12.652178,-252.262344,-225.009179,19.926907
1772267988882,0.019793,-31.503576,-16.575644,17.258551
1772267988886,19.364673,126.928096,110.853458,8.183755
1772267988889,9.475412,30.935407,-4.520711,-2.920552
1772267988893,4.960808,109.542872,74.754527,-5.051189
1772267988897,4.671455,69.061201,34.002336,-7.461291
1772267988901,2.026166,96.155492,49.380585,0.474473
1772267988905,-2.392368,82.307973,33.299934,10.143097
1772267988909,-4.148497,15.505303,-14.657773,6.898355
1772267988913,-0.291704,20.091837,3.784534,-6.124499
1772267988917,13.557237,78.253461,60.144491,-12.600951
1772267988921,26.686302,16.111542,-9.543271,-12.453419
1772267988925,18.898841,-265.094510,-299.643129,-7.822938
1772267988928,3.598662,-430.707856,-462.643777,4.142609
1772267988932,7.896957,-133.799874,-158.765925,15.296286
1772267988936,29.913610,338.626531,295.730650,13.989526
1772267988940,13.048523,124.438079,85.109399,8.919766
1772267988944,-5.447975,-76.747582,-101.494799,12.280785
1772267988948,-10.133313,-38.440006,-59.468946,22.103329
1772267988952,2.122822,164.940468,136.515538,22.725060
1772267988956,13.292536,224.227084,188.484776,13.616569
1772267988960,8.153949,83.254819,50.001828,9.435609
1772267988964,-6.428584,-155.954513,-168.764445,10.638882
1772267988968,-11.583134,-310.325045,-293.076708,9.545865
1772267988971,-4.088139,-275.647402,-244.298998,6.711836
1772267988975,1.722270,-133.184010,-123.804556,5.487906
1772267988979,-3.106502,-15.374464,-38.756423,5.932021
1772267988983,-13.316100,-44.800056,-71.053145,7.406527
1772267988987,-16.304244,-79.740058,-99.244996,8.221678
1772267988991,-14.448916,46.525186,7.329353,8.373412
1772267988995,-16.207443,166.900175,101.495690,10.400235
1772267988999,-12.654096,159.031380,96.128849,13.701720
1772267989003,-1.650693,84.021833,44.776452,13.793670
1772267989007,4.631477,-2.400175,-26.438510,6.718041
1772267989010,0.665087,-125.639403,-143.816213,2.485411
1772267989014,-8.659748,-291.113635,-294.871002,9.940353
1772267989018,-11.060820,-267.798081,-263.380744,12.828337
1772267989022,0.282928,-3.455687,-16.327933,-1.217153
1772267989026,13.371162,144.318893,111.025321,-20.165637
1772267989030,5.581312,-5.975746,-46.609403,-24.233840
1772267988940,13.048523,124.438079,85.109399,8.919766
1772267988944,-5.447975,-76.747582,-101.494799,12.280785
1772267988948,-10.133313,-38.440006,-59.468946,22.103329
1772267988952,2.122822,164.940468,136.515538,22.725060
1772267988956,13.292536,224.227084,188.484776,13.616569
1772267988960,8.153949,83.254819,50.001828,9.435609
1772267988964,-6.428584,-155.954513,-168.764445,10.638882
1772267988968,-11.583134,-310.325045,-293.076708,9.545865
1772267988971,-4.088139,-275.647402,-244.298998,6.711836
1772267988975,1.722270,-133.184010,-123.804556,5.487906
1772267988979,-3.106502,-15.374464,-38.756423,5.932021
1772267988983,-13.316100,-44.800056,-71.053145,7.406527
1772267988987,-16.304244,-79.740058,-99.244996,8.221678
1772267988991,-14.448916,46.525186,7.329353,8.373412
1772267988995,-16.207443,166.900175,101.495690,10.400235
1772267988999,-12.654096,159.031380,96.128849,13.701720
1772267989003,-1.650693,84.021833,44.776452,13.793670
1772267989007,4.631477,-2.400175,-26.438510,6.718041
1772267989010,0.665087,-125.639403,-143.816213,2.485411
1772267989014,-8.659748,-291.113635,-294.871002,9.940353
1772267989018,-11.060820,-267.798081,-263.380744,12.828337
1772267989022,0.282928,-3.455687,-16.327933,-1.217153
1772267989026,13.371162,144.318893,111.025321,-20.165637
1772267989030,5.581312,-5.975746,-46.609403,-24.233840
1772267989034,-6.363517,8.096963,-25.098351,-17.950385
1772267989038,-13.693925,15.416961,-23.593761,-16.174700
1772267989042,-15.667215,96.357411,46.342213,-12.998729
1772267989046,-13.577919,42.830207,1.234021,-10.378664
1772267989050,-12.655435,-27.251527,-53.982188,-5.549083
1772267989053,-13.452056,28.890605,3.558268,0.530846
1772267989057,-9.544922,57.405464,36.551929,0.153218
1772267989061,-8.447976,-109.348831,-111.858667,-9.064333
1772267989065,-21.627811,-322.217621,-319.614264,-16.240890
1772267989069,-36.215347,-290.804384,-303.178588,-15.814382
1772267989073,-32.126144,-16.008761,-41.301187,-16.073594
1772267989077,-6.537307,322.918652,277.500935,-22.228409
1772267989034,-6.363517,8.096963,-25.098351,-17.950385
1772267989038,-13.693925,15.416961,-23.593761,-16.174700
1772267989042,-15.667215,96.357411,46.342213,-12.998729
1772267989046,-13.577919,42.830207,1.234021,-10.378664
1772267989050,-12.655435,-27.251527,-53.982188,-5.549083
1772267989053,-13.452056,28.890605,3.558268,0.530846
1772267989057,-9.544922,57.405464,36.551929,0.153218
1772267989061,-8.447976,-109.348831,-111.858667,-9.064333
1772267989065,-21.627811,-322.217621,-319.614264,-16.240890
1772267989069,-36.215347,-290.804384,-303.178588,-15.814382
1772267989073,-32.126144,-16.008761,-41.301187,-16.073594
1772267989077,-6.537307,322.918652,277.500935,-22.228409
1772267989128,-6.237686,85.597446,59.258720,6.272802
1772267989132,-4.644232,140.436529,112.187016,6.753779
1772267989135,-0.357629,38.771182,17.839513,9.544882
1772267989139,-2.114526,9.705763,-14.323917,8.069598
1772267989143,-10.820552,140.662802,103.483514,3.063527
1772267989147,-13.871174,197.687048,161.418821,-2.307379
1772267989151,-12.282372,16.163805,1.598637,-6.686882
1772267989155,-17.914860,-263.840562,-255.014741,-3.920457
1772267989159,-19.642753,-254.005291,-241.538485,7.195135
1772267989163,-5.243415,50.692142,43.451232,14.592784
1772267989167,11.607094,202.096176,169.975055,8.685701
1772267989171,8.321807,18.202138,-21.425349,-3.345798
1772267989128,-6.237686,85.597446,59.258720,6.272802
1772267989132,-4.644232,140.436529,112.187016,6.753779
1772267989135,-0.357629,38.771182,17.839513,9.544882
1772267989139,-2.114526,9.705763,-14.323917,8.069598
1772267989143,-10.820552,140.662802,103.483514,3.063527
1772267989147,-13.871174,197.687048,161.418821,-2.307379
1772267989151,-12.282372,16.163805,1.598637,-6.686882
1772267989155,-17.914860,-263.840562,-255.014741,-3.920457
1772267989159,-19.642753,-254.005291,-241.538485,7.195135
1772267989163,-5.243415,50.692142,43.451232,14.592784
1772267989167,11.607094,202.096176,169.975055,8.685701
1772267989171,8.321807,18.202138,-21.425349,-3.345798
1772267989128,-6.237686,85.597446,59.258720,6.272802
1772267989132,-4.644232,140.436529,112.187016,6.753779
1772267989135,-0.357629,38.771182,17.839513,9.544882
1772267989139,-2.114526,9.705763,-14.323917,8.069598
1772267989143,-10.820552,140.662802,103.483514,3.063527
1772267989147,-13.871174,197.687048,161.418821,-2.307379
1772267989151,-12.282372,16.163805,1.598637,-6.686882
1772267989155,-17.914860,-263.840562,-255.014741,-3.920457
1772267989159,-19.642753,-254.005291,-241.538485,7.195135
1772267989163,-5.243415,50.692142,43.451232,14.592784
1772267989167,11.607094,202.096176,169.975055,8.685701
1772267989171,8.321807,18.202138,-21.425349,-3.345798
1772267989128,-6.237686,85.597446,59.258720,6.272802
1772267989132,-4.644232,140.436529,112.187016,6.753779
1772267989135,-0.357629,38.771182,17.839513,9.544882
1772267989139,-2.114526,9.705763,-14.323917,8.069598
1772267989143,-10.820552,140.662802,103.483514,3.063527
1772267989147,-13.871174,197.687048,161.418821,-2.307379
1772267989151,-12.282372,16.163805,1.598637,-6.686882
1772267989155,-17.914860,-263.840562,-255.014741,-3.920457
1772267989159,-19.642753,-254.005291,-241.538485,7.195135
1772267989163,-5.243415,50.692142,43.451232,14.592784
1772267989167,11.607094,202.096176,169.975055,8.685701
1772267989171,8.321807,18.202138,-21.425349,-3.345798
1772267989175,-3.881865,149.655441,100.999347,1.869336
1772267989178,-1.383872,159.952184,117.602445,4.811869
1772267989182,0.911249,41.429478,22.437738,5.634518
1772267989186,-4.466060,-15.197704,-26.765867,3.703970
1772267989190,-10.982379,64.833754,40.608267,4.304070
1772267989194,-10.788071,136.273873,106.448845,6.549490
1772267989198,-3.544236,93.308969,80.983085,4.961178
1772267989202,-1.392151,-71.440981,-56.799146,0.285054
1772267989206,-10.472814,-304.983984,-269.357196,0.732515
1772267989210,-19.713733,-413.706475,-364.620682,8.320008
1772267989214,-17.633977,-213.635819,-176.316386,13.948525
1772267989217,0.896001,199.031223,194.596771,10.157566
1772267989175,-3.881865,149.655441,100.999347,1.869336
1772267989178,-1.383872,159.952184,117.602445,4.811869
1772267989182,0.911249,41.429478,22.437738,5.634518
1772267989186,-4.466060,-15.197704,-26.765867,3.703970
1772267989190,-10.982379,64.833754,40.608267,4.304070
1772267989194,-10.788071,136.273873,106.448845,6.549490
1772267989198,-3.544236,93.308969,80.983085,4.961178
1772267989202,-1.392151,-71.440981,-56.799146,0.285054
1772267989206,-10.472814,-304.983984,-269.357196,0.732515
1772267989210,-19.713733,-413.706475,-364.620682,8.320008
1772267989214,-17.633977,-213.635819,-176.316386,13.948525
1772267989217,0.896001,199.031223,194.596771,10.157566
1772267989221,-10.316473,77.201035,57.430442,4.332297
1772267989225,-8.842500,124.822099,102.838344,5.108080
1772267989229,-4.624319,137.966777,118.228315,4.101161
1772267989233,0.040388,190.609776,160.941571,0.575405
1772267989237,2.305389,141.628668,112.840799,3.397908
1772267989241,-2.073029,-13.830472,-21.996204,13.540952
1772267989245,-7.554100,-135.102965,-122.393244,18.855811
1772267989249,3.237363,-38.419284,-26.075424,17.286180
1772267989253,23.961111,113.514580,118.957942,14.088844
1772267989257,26.990487,-34.588640,-15.452723,7.270466
1772267989260,2.592115,-328.313828,-296.739577,0.708835
1772267989264,-24.004461,-369.471569,-348.773525,5.965162
1772267989221,-10.316473,77.201035,57.430442,4.332297
1772267989225,-8.842500,124.822099,102.838344,5.108080
1772267989229,-4.624319,137.966777,118.228315,4.101161
1772267989233,0.040388,190.609776,160.941571,0.575405
1772267989237,2.305389,141.628668,112.840799,3.397908
1772267989241,-2.073029,-13.830472,-21.996204,13.540952
1772267989245,-7.554100,-135.102965,-122.393244,18.855811
1772267989249,3.237363,-38.419284,-26.075424,17.286180
1772267989253,23.961111,113.514580,118.957942,14.088844
1772267989257,26.990487,-34.588640,-15.452723,7.270466
1772267989260,2.592115,-328.313828,-296.739577,0.708835
1772267989264,-24.004461,-369.471569,-348.773525,5.965162
1772267989221,-10.316473,77.201035,57.430442,4.332297
1772267989225,-8.842500,124.822099,102.838344,5.108080
1772267989229,-4.624319,137.966777,118.228315,4.101161
1772267989233,0.040388,190.609776,160.941571,0.575405
1772267989237,2.305389,141.628668,112.840799,3.397908
1772267989241,-2.073029,-13.830472,-21.996204,13.540952
1772267989245,-7.554100,-135.102965,-122.393244,18.855811
1772267989249,3.237363,-38.419284,-26.075424,17.286180
1772267989253,23.961111,113.514580,118.957942,14.088844
1772267989257,26.990487,-34.588640,-15.452723,7.270466
1772267989260,2.592115,-328.313828,-296.739577,0.708835
1772267989264,-24.004461,-369.471569,-348.773525,5.965162
1772267989221,-10.316473,77.201035,57.430442,4.332297
1772267989225,-8.842500,124.822099,102.838344,5.108080
1772267989229,-4.624319,137.966777,118.228315,4.101161
1772267989233,0.040388,190.609776,160.941571,0.575405
1772267989237,2.305389,141.628668,112.840799,3.397908
1772267989241,-2.073029,-13.830472,-21.996204,13.540952
1772267989245,-7.554100,-135.102965,-122.393244,18.855811
1772267989249,3.237363,-38.419284,-26.075424,17.286180
1772267989253,23.961111,113.514580,118.957942,14.088844
1772267989257,26.990487,-34.588640,-15.452723,7.270466
1772267989260,2.592115,-328.313828,-296.739577,0.708835
1772267989264,-24.004461,-369.471569,-348.773525,5.965162
1772267989268,-1.947265,14.404842,1.489553,7.940758
1772267989272,-0.987159,60.861291,45.581166,13.908282
1772267989276,-1.443330,90.706708,68.428510,11.787465
1772267989280,-0.748001,125.404739,96.788257,7.684931
1772267989284,5.740269,148.401900,123.260491,8.460284
1772267989288,15.614200,138.576512,122.931914,11.629729
1772267989292,14.068943,37.319954,36.375936,13.339198
1772267989296,-2.760070,-169.553880,-148.048474,14.955058
1772267989300,-11.589515,-299.362894,-251.445417,17.404196
1772267989303,2.143931,-167.088465,-119.528414,14.603473
1772267989307,23.642456,151.240788,152.569193,2.374670
1772267989311,22.372416,213.913668,179.780085,-9.346335
1772267989268,-1.947265,14.404842,1.489553,7.940758
1772267989272,-0.987159,60.861291,45.581166,13.908282
1772267989276,-1.443330,90.706708,68.428510,11.787465
1772267989280,-0.748001,125.404739,96.788257,7.684931
1772267989284,5.740269,148.401900,123.260491,8.460284
1772267989288,15.614200,138.576512,122.931914,11.629729
1772267989292,14.068943,37.319954,36.375936,13.339198
1772267989296,-2.760070,-169.553880,-148.048474,14.955058
1772267989300,-11.589515,-299.362894,-251.445417,17.404196
1772267989303,2.143931,-167.088465,-119.528414,14.603473
1772267989307,23.642456,151.240788,152.569193,2.374670
1772267989311,22.372416,213.913668,179.780085,-9.346335
1772267989315,-8.161255,-44.645320,-59.120740,-0.464604
1772267989319,-5.123573,3.723101,-2.022736,6.239745
1772267989323,5.261924,194.011938,180.119526,7.057659
1772267989327,6.421062,252.519746,229.720897,2.515620
1772267989331,-2.020068,117.196162,100.119597,-0.704298
1772267989335,-10.783970,-40.509588,-45.484257,-1.159686
1772267989339,-9.908181,-77.835750,-68.880270,-0.536860
1772267989342,-2.596014,-76.032088,-60.240316,-0.676546
1772267989346,-0.184608,-118.187408,-119.474486,-4.710771
1772267989350,-5.262036,-79.287153,-105.528878,-8.041490
1772267989354,-11.798540,18.458796,-8.569538,-3.766091
1772267989358,-11.919103,45.210366,39.575516,2.000569
1772267989362,-8.213655,42.900859,49.571051,1.949925
1772267989366,-4.939515,120.193801,112.451481,0.445805
1772267989370,0.209666,248.294245,221.919508,1.083888
1772267989374,5.188075,210.082508,192.162727,-0.446624
1772267989378,8.127774,-2.095167,4.943788,-5.261661
1772267989382,4.394361,-163.413046,-145.811430,-7.343334
1772267989385,-7.163613,-198.442710,-181.805127,-6.738044
1772267989389,-9.276800,-114.573096,-92.318180,-9.551445
1772267989393,2.417692,13.717091,37.449204,-15.668322
1772267989397,6.876606,17.714370,26.537287,-18.191007
1772267989401,-6.534939,-184.446814,-182.797627,-10.496660
1772267989405,-22.470624,-327.123606,-319.720896,2.168998
1772267989315,-8.161255,-44.645320,-59.120740,-0.464604
1772267989319,-5.123573,3.723101,-2.022736,6.239745
1772267989323,5.261924,194.011938,180.119526,7.057659
1772267989327,6.421062,252.519746,229.720897,2.515620
1772267989331,-2.020068,117.196162,100.119597,-0.704298
1772267989335,-10.783970,-40.509588,-45.484257,-1.159686
1772267989339,-9.908181,-77.835750,-68.880270,-0.536860
1772267989342,-2.596014,-76.032088,-60.240316,-0.676546
1772267989346,-0.184608,-118.187408,-119.474486,-4.710771
1772267989350,-5.262036,-79.287153,-105.528878,-8.041490
1772267989354,-11.798540,18.458796,-8.569538,-3.766091
1772267989358,-11.919103,45.210366,39.575516,2.000569
1772267989362,-8.213655,42.900859,49.571051,1.949925
1772267989366,-4.939515,120.193801,112.451481,0.445805
1772267989370,0.209666,248.294245,221.919508,1.083888
1772267989374,5.188075,210.082508,192.162727,-0.446624
1772267989378,8.127774,-2.095167,4.943788,-5.261661
1772267989382,4.394361,-163.413046,-145.811430,-7.343334
1772267989385,-7.163613,-198.442710,-181.805127,-6.738044
1772267989389,-9.276800,-114.573096,-92.318180,-9.551445
1772267989393,2.417692,13.717091,37.449204,-15.668322
1772267989397,6.876606,17.714370,26.537287,-18.191007
1772267989401,-6.534939,-184.446814,-182.797627,-10.496660
1772267989405,-22.470624,-327.123606,-319.720896,2.168998
1772267989315,-8.161255,-44.645320,-59.120740,-0.464604
1772267989319,-5.123573,3.723101,-2.022736,6.239745
1772267989323,5.261924,194.011938,180.119526,7.057659
1772267989327,6.421062,252.519746,229.720897,2.515620
1772267989331,-2.020068,117.196162,100.119597,-0.704298
1772267989335,-10.783970,-40.509588,-45.484257,-1.159686
1772267989339,-9.908181,-77.835750,-68.880270,-0.536860
1772267989342,-2.596014,-76.032088,-60.240316,-0.676546
1772267989346,-0.184608,-118.187408,-119.474486,-4.710771
1772267989350,-5.262036,-79.287153,-105.528878,-8.041490
1772267989354,-11.798540,18.458796,-8.569538,-3.766091
1772267989358,-11.919103,45.210366,39.575516,2.000569
1772267989362,-8.213655,42.900859,49.571051,1.949925
1772267989366,-4.939515,120.193801,112.451481,0.445805
1772267989370,0.209666,248.294245,221.919508,1.083888
1772267989374,5.188075,210.082508,192.162727,-0.446624
1772267989378,8.127774,-2.095167,4.943788,-5.261661
1772267989382,4.394361,-163.413046,-145.811430,-7.343334
1772267989385,-7.163613,-198.442710,-181.805127,-6.738044
1772267989389,-9.276800,-114.573096,-92.318180,-9.551445
1772267989393,2.417692,13.717091,37.449204,-15.668322
1772267989397,6.876606,17.714370,26.537287,-18.191007
1772267989401,-6.534939,-184.446814,-182.797627,-10.496660
1772267989405,-22.470624,-327.123606,-319.720896,2.168998
1772267989549,0.096707,-129.807231,-70.492152,-4.718709
1772267989553,-3.828931,-16.489644,15.747203,-0.659414
1772267989557,-4.229977,-8.252840,6.180677,3.278513
1772267989561,-4.030670,32.422491,38.937622,5.394856
1772267989565,-1.799613,138.487815,148.451248,2.556621
1772267989569,6.137716,206.165146,229.275127,-3.294265
1772267989573,7.772312,39.991619,76.801086,-7.931897
1772267989577,-4.825871,-280.479295,-237.687126,-8.287829
1772267989581,-16.934531,-344.106519,-306.352405,-1.866994
1772267989585,-10.998830,-62.475368,-47.869940,4.525878
1772267989589,12.661584,283.623974,265.699357,1.671602
1772267989592,24.544864,305.609718,276.474038,-6.473145
1772267989549,0.096707,-129.807231,-70.492152,-4.718709
1772267989553,-3.828931,-16.489644,15.747203,-0.659414
1772267989557,-4.229977,-8.252840,6.180677,3.278513
1772267989561,-4.030670,32.422491,38.937622,5.394856
1772267989565,-1.799613,138.487815,148.451248,2.556621
1772267989569,6.137716,206.165146,229.275127,-3.294265
1772267989573,7.772312,39.991619,76.801086,-7.931897
1772267989577,-4.825871,-280.479295,-237.687126,-8.287829
1772267989581,-16.934531,-344.106519,-306.352405,-1.866994
1772267989585,-10.998830,-62.475368,-47.869940,4.525878
1772267989589,12.661584,283.623974,265.699357,1.671602
1772267989592,24.544864,305.609718,276.474038,-6.473145
1772267989596,6.425257,172.809594,165.363637,-3.161344
1772267989600,1.989194,130.461891,140.410524,-8.240968
1772267989604,-1.208210,27.950205,50.506104,-12.274011
1772267989608,-2.573843,-37.937843,-15.412565,-15.324645
1772267989612,-4.378840,-15.976563,-1.798516,-14.140084
1772267989616,-2.535903,26.761075,38.902119,-3.907237
1772267989620,7.332150,74.697387,94.403178,7.577936
1772267989624,13.642111,69.899506,99.897922,9.352552
1772267989628,5.960091,-112.884434,-65.950526,4.575721
1772267989632,-10.910928,-394.347400,-325.558260,5.617485
1772267989635,-20.048407,-368.749185,-310.035632,13.598486
1772267989639,-4.619473,117.930488,129.402958,15.708817
1772267989596,6.425257,172.809594,165.363637,-3.161344
1772267989600,1.989194,130.461891,140.410524,-8.240968
1772267989604,-1.208210,27.950205,50.506104,-12.274011
1772267989608,-2.573843,-37.937843,-15.412565,-15.324645
1772267989612,-4.378840,-15.976563,-1.798516,-14.140084
1772267989616,-2.535903,26.761075,38.902119,-3.907237
1772267989620,7.332150,74.697387,94.403178,7.577936
1772267989624,13.642111,69.899506,99.897922,9.352552
1772267989628,5.960091,-112.884434,-65.950526,4.575721
1772267989632,-10.910928,-394.347400,-325.558260,5.617485
1772267989635,-20.048407,-368.749185,-310.035632,13.598486
1772267989639,-4.619473,117.930488,129.402958,15.708817
1772267989643,-2.222065,92.276331,88.647969,6.282031
1772267989647,1.354341,116.085898,111.711954,1.001954
1772267989651,3.997475,144.204918,131.181517,-3.397060
1772267989655,5.470967,157.064610,134.811577,-6.839464
1772267989659,4.812757,64.636230,52.523266,-12.507963
1772267989663,-0.196353,-129.280502,-116.331539,-14.572708
1772267989667,-4.279427,-250.866368,-221.393726,-6.503992
1772267989671,1.955790,-148.982107,-117.024120,4.232269
1772267989674,14.651592,-30.079864,9.957914,7.541214
1772267989678,20.550501,-42.761344,1.414205,2.923624
1772267989682,6.149597,-132.734714,-109.375084,-1.637799
1772267989686,-20.373752,-215.958128,-213.999305,3.306855
1772267989643,-2.222065,92.276331,88.647969,6.282031
1772267989647,1.354341,116.085898,111.711954,1.001954
1772267989651,3.997475,144.204918,131.181517,-3.397060
1772267989655,5.470967,157.064610,134.811577,-6.839464
1772267989659,4.812757,64.636230,52.523266,-12.507963
1772267989663,-0.196353,-129.280502,-116.331539,-14.572708
1772267989667,-4.279427,-250.866368,-221.393726,-6.503992
1772267989671,1.955790,-148.982107,-117.024120,4.232269
1772267989674,14.651592,-30.079864,9.957914,7.541214
1772267989678,20.550501,-42.761344,1.414205,2.923624
1772267989682,6.149597,-132.734714,-109.375084,-1.637799
1772267989686,-20.373752,-215.958128,-213.999305,3.306855
1772267989690,-6.042619,95.660755,82.769784,5.413241
1772267989694,-9.892594,121.053115,106.237898,7.000130
1772267989698,-9.735363,193.984804,165.730379,8.028674
1772267989702,-7.290112,171.421865,145.006406,8.658241
1772267989706,-2.321885,54.626098,50.736078,8.470887
1772267989710,7.733036,35.519705,45.849856,7.418090
1772267989714,12.167952,59.866948,69.467647,6.427622
1772267989717,2.456802,-77.253997,-55.833613,5.205770
1772267989721,-10.422180,-302.144252,-248.924551,5.843974
1772267989725,-7.929172,-266.270123,-206.613555,8.003269
1772267989729,12.875594,109.133671,128.024064,3.625094
1772267989733,22.905405,300.963468,279.700706,-8.328863
1772267989690,-6.042619,95.660755,82.769784,5.413241
1772267989694,-9.892594,121.053115,106.237898,7.000130
1772267989698,-9.735363,193.984804,165.730379,8.028674
1772267989702,-7.290112,171.421865,145.006406,8.658241
1772267989706,-2.321885,54.626098,50.736078,8.470887
1772267989710,7.733036,35.519705,45.849856,7.418090
1772267989714,12.167952,59.866948,69.467647,6.427622
1772267989717,2.456802,-77.253997,-55.833613,5.205770
1772267989721,-10.422180,-302.144252,-248.924551,5.843974
1772267989725,-7.929172,-266.270123,-206.613555,8.003269
1772267989729,12.875594,109.133671,128.024064,3.625094
1772267989733,22.905405,300.963468,279.700706,-8.328863
1772267989737,-8.156678,-65.919952,-80.866390,-8.453155
1772267989741,-15.041250,-49.708159,-63.440058,-8.135350
1772267989745,-9.630500,159.819268,143.226865,-8.593095
1772267989749,3.116260,255.350471,245.013640,-6.565569
1772267989753,8.126170,151.271266,146.431433,-1.454465
1772267989756,0.160462,-28.873401,-32.470726,2.085683
1772267989760,-5.342887,-154.771687,-147.869325,3.670058
1772267989764,-0.054928,-199.674522,-194.331041,6.196694
1772267989768,8.038758,-116.647152,-139.399459,6.055104
1772267989772,7.082510,8.150591,-28.664710,0.350707
1772267989776,-1.848130,-16.812673,-31.279101,-5.522507
1772267989780,-4.766290,-95.667698,-79.737136,-5.480176
1772267989784,0.664764,-65.288987,-41.737322,-0.456494
1772267989788,6.344520,75.021927,81.684672,3.213440
1772267989792,7.394372,206.283976,194.836738,3.812130
1772267989796,5.334304,195.220450,183.555201,3.618435
1772267989799,5.109296,97.519579,99.601079,2.182322
1772267989803,3.027470,-61.720188,-40.395525,2.238553
1772267989807,-2.500023,-262.899562,-218.048893,5.640745
1772267989811,-1.266903,-290.324022,-231.092837,8.405938
1772267989815,12.907934,-46.047824,-5.268048,8.445358
1772267989819,29.327117,168.904803,179.081931,6.264393
1772267989823,24.998443,-21.497286,-8.323991,6.532373
1772267989827,-0.160339,-336.631190,-308.164146,14.800074
1772267989737,-8.156678,-65.919952,-80.866390,-8.453155
1772267989741,-15.041250,-49.708159,-63.440058,-8.135350
1772267989745,-9.630500,159.819268,143.226865,-8.593095
1772267989749,3.116260,255.350471,245.013640,-6.565569
1772267989753,8.126170,151.271266,146.431433,-1.454465
1772267989756,0.160462,-28.873401,-32.470726,2.085683
1772267989760,-5.342887,-154.771687,-147.869325,3.670058
1772267989764,-0.054928,-199.674522,-194.331041,6.196694
1772267989768,8.038758,-116.647152,-139.399459,6.055104
1772267989772,7.082510,8.150591,-28.664710,0.350707
1772267989776,-1.848130,-16.812673,-31.279101,-5.522507
1772267989780,-4.766290,-95.667698,-79.737136,-5.480176
1772267989784,0.664764,-65.288987,-41.737322,-0.456494
1772267989788,6.344520,75.021927,81.684672,3.213440
1772267989792,7.394372,206.283976,194.836738,3.812130
1772267989796,5.334304,195.220450,183.555201,3.618435
1772267989799,5.109296,97.519579,99.601079,2.182322
1772267989803,3.027470,-61.720188,-40.395525,2.238553
1772267989807,-2.500023,-262.899562,-218.048893,5.640745
1772267989811,-1.266903,-290.324022,-231.092837,8.405938
1772267989815,12.907934,-46.047824,-5.268048,8.445358
1772267989819,29.327117,168.904803,179.081931,6.264393
1772267989823,24.998443,-21.497286,-8.323991,6.532373
1772267989827,-0.160339,-336.631190,-308.164146,14.800074
1772267989831,5.676981,-17.957674,-4.114018,21.632866
1772267989835,15.800063,120.889968,122.466825,18.219622
1772267989839,18.723159,82.752021,83.325147,14.802058
1772267989842,6.180380,-81.097057,-70.946150,13.305352
1772267989846,-10.219263,-139.510316,-128.861512,11.049424
1772267989850,-12.062056,-20.356851,-14.862714,6.783998
1772267989854,-3.329930,-7.803698,13.487887,0.988786
1772267989858,0.094377,-143.775640,-101.168104,-5.509455
1772267989862,-6.032647,-177.862013,-146.003433,-8.556154
1772267989866,-10.891247,-107.044011,-99.757440,-5.174344
1772267989870,-6.207523,-1.627440,-5.793933,-0.638985
1772267989874,0.847082,100.631426,86.535674,-0.063814
1772267989878,4.751563,151.921528,126.367769,-2.221636
1772267989881,7.106404,125.603114,105.020472,-3.155709
1772267989885,9.770212,10.690461,11.939440,-0.882851
1772267989889,12.186512,-71.225585,-54.909396,2.908288
1772267989893,8.228045,-43.728154,-32.978259,7.390930
1772267989897,1.896027,22.143547,24.758872,11.503530
1772267989901,5.714223,40.607886,56.569143,10.907666
1772267989905,16.846129,-6.504188,27.558523,3.163722
1772267989909,18.967367,-31.046647,-5.349083,-5.329653
1772267989913,1.446090,-118.293893,-101.701158,-2.975263
1772267989917,-18.974070,-275.923672,-240.756749,9.564125
1772267989921,-12.038609,-132.607400,-93.967002,18.048686
1772267989924,-4.069689,-18.373253,-13.942895,14.049261
1772267989928,-3.497070,46.097451,45.427374,13.963802
1772267989932,-3.758622,13.638951,24.160115,10.588244
1772267989936,-5.250416,78.435598,77.397169,6.002093
1772267989940,-3.685242,198.336512,175.189669,1.389917
1772267989944,-3.607873,111.019113,95.285500,-1.415056
1772267989948,-9.821147,-179.322693,-153.323147,-1.777930
1772267989952,-16.381699,-301.308265,-244.470626,-3.189748
1772267989956,-12.727617,-95.097525,-51.465803,-8.454191
1772267989960,-0.879020,112.140306,129.591212,-17.637989
1772267989964,-3.634731,-28.257711,-18.174745,-25.105967
1772267989967,-25.475167,-304.069615,-291.482203,-22.213848
1772267989831,5.676981,-17.957674,-4.114018,21.632866
1772267989835,15.800063,120.889968,122.466825,18.219622
1772267989839,18.723159,82.752021,83.325147,14.802058
1772267989842,6.180380,-81.097057,-70.946150,13.305352
1772267989846,-10.219263,-139.510316,-128.861512,11.049424
1772267989850,-12.062056,-20.356851,-14.862714,6.783998
1772267989854,-3.329930,-7.803698,13.487887,0.988786
1772267989858,0.094377,-143.775640,-101.168104,-5.509455
1772267989862,-6.032647,-177.862013,-146.003433,-8.556154
1772267989866,-10.891247,-107.044011,-99.757440,-5.174344
1772267989870,-6.207523,-1.627440,-5.793933,-0.638985
1772267989874,0.847082,100.631426,86.535674,-0.063814
1772267989878,4.751563,151.921528,126.367769,-2.221636
1772267989881,7.106404,125.603114,105.020472,-3.155709
1772267989885,9.770212,10.690461,11.939440,-0.882851
1772267989889,12.186512,-71.225585,-54.909396,2.908288
1772267989893,8.228045,-43.728154,-32.978259,7.390930
1772267989897,1.896027,22.143547,24.758872,11.503530
1772267989901,5.714223,40.607886,56.569143,10.907666
1772267989905,16.846129,-6.504188,27.558523,3.163722
1772267989909,18.967367,-31.046647,-5.349083,-5.329653
1772267989913,1.446090,-118.293893,-101.701158,-2.975263
1772267989917,-18.974070,-275.923672,-240.756749,9.564125
1772267989921,-12.038609,-132.607400,-93.967002,18.048686
1772267989924,-4.069689,-18.373253,-13.942895,14.049261
1772267989928,-3.497070,46.097451,45.427374,13.963802
1772267989932,-3.758622,13.638951,24.160115,10.588244
1772267989936,-5.250416,78.435598,77.397169,6.002093
1772267989940,-3.685242,198.336512,175.189669,1.389917
1772267989944,-3.607873,111.019113,95.285500,-1.415056
1772267989948,-9.821147,-179.322693,-153.323147,-1.777930
1772267989952,-16.381699,-301.308265,-244.470626,-3.189748
1772267989956,-12.727617,-95.097525,-51.465803,-8.454191
1772267989960,-0.879020,112.140306,129.591212,-17.637989
1772267989964,-3.634731,-28.257711,-18.174745,-25.105967
1772267989967,-25.475167,-304.069615,-291.482203,-22.213848
1772267989878,4.751563,151.921528,126.367769,-2.221636
1772267989881,7.106404,125.603114,105.020472,-3.155709
1772267989885,9.770212,10.690461,11.939440,-0.882851
1772267989889,12.186512,-71.225585,-54.909396,2.908288
1772267989893,8.228045,-43.728154,-32.978259,7.390930
1772267989897,1.896027,22.143547,24.758872,11.503530
1772267989901,5.714223,40.607886,56.569143,10.907666
1772267989905,16.846129,-6.504188,27.558523,3.163722
1772267989909,18.967367,-31.046647,-5.349083,-5.329653
1772267989913,1.446090,-118.293893,-101.701158,-2.975263
1772267989917,-18.974070,-275.923672,-240.756749,9.564125
1772267989921,-12.038609,-132.607400,-93.967002,18.048686
1772267989924,-4.069689,-18.373253,-13.942895,14.049261
1772267989928,-3.497070,46.097451,45.427374,13.963802
1772267989932,-3.758622,13.638951,24.160115,10.588244
1772267989936,-5.250416,78.435598,77.397169,6.002093
1772267989940,-3.685242,198.336512,175.189669,1.389917
1772267989944,-3.607873,111.019113,95.285500,-1.415056
1772267989948,-9.821147,-179.322693,-153.323147,-1.777930
1772267989952,-16.381699,-301.308265,-244.470626,-3.189748
1772267989956,-12.727617,-95.097525,-51.465803,-8.454191
1772267989960,-0.879020,112.140306,129.591212,-17.637989
1772267989964,-3.634731,-28.257711,-18.174745,-25.105967
1772267989967,-25.475167,-304.069615,-291.482203,-22.213848
1772267989971,-10.800094,109.663297,100.142312,-18.541061
1772267989975,-12.316410,160.029658,132.866825,-18.816363
1772267989979,-14.042161,106.637599,72.229479,-22.475433
1772267989983,-17.430876,60.352146,29.549464,-25.737497
1772267989987,-18.411100,66.860260,55.215484,-25.045998
1772267989991,-13.083961,130.502983,136.998823,-23.414836
1772267989995,-11.562582,86.120118,91.580041,-24.345237
1772267989999,-19.998716,-114.432668,-117.672694,-22.938828
1772267990003,-30.709317,-304.610958,-308.311777,-13.885887
1772267990006,-27.394095,-250.717914,-260.515993,-4.789720
1772267990010,-4.842482,144.726171,113.528805,-7.261475
1772267990014,12.224191,403.166331,354.111511,-16.210336
1772267989971,-10.800094,109.663297,100.142312,-18.541061
1772267989975,-12.316410,160.029658,132.866825,-18.816363
1772267989979,-14.042161,106.637599,72.229479,-22.475433
1772267989983,-17.430876,60.352146,29.549464,-25.737497
1772267989987,-18.411100,66.860260,55.215484,-25.045998
1772267989991,-13.083961,130.502983,136.998823,-23.414836
1772267989995,-11.562582,86.120118,91.580041,-24.345237
1772267989999,-19.998716,-114.432668,-117.672694,-22.938828
1772267990003,-30.709317,-304.610958,-308.311777,-13.885887
1772267990006,-27.394095,-250.717914,-260.515993,-4.789720
1772267990010,-4.842482,144.726171,113.528805,-7.261475
1772267990014,12.224191,403.166331,354.111511,-16.210336
1772267990018,-7.648417,105.286454,86.973066,-5.332633
1772267990022,-1.036982,85.820404,78.664123,2.896086
1772267990026,2.967879,128.407073,115.984670,4.876663
1772267990030,5.116031,168.203801,150.230593,1.420681
1772267990034,2.864705,48.105408,41.159520,2.125005
1772267990038,-1.855311,-103.654040,-95.120020,6.683048
1772267990042,1.495310,-38.993492,-28.265333,7.121945
1772267990046,15.114527,102.339786,111.948502,2.465031
1772267990049,24.891784,-2.651012,26.435651,-1.861929
1772267990053,13.373605,-334.359779,-279.429415,-0.449852
1772267990057,-7.030467,-432.867646,-384.779743,6.883384
1772267990061,-3.791628,-43.139601,-28.478909,12.467400
1772267990018,-7.648417,105.286454,86.973066,-5.332633
1772267990022,-1.036982,85.820404,78.664123,2.896086
1772267990026,2.967879,128.407073,115.984670,4.876663
1772267990030,5.116031,168.203801,150.230593,1.420681
1772267990034,2.864705,48.105408,41.159520,2.125005
1772267990038,-1.855311,-103.654040,-95.120020,6.683048
1772267990042,1.495310,-38.993492,-28.265333,7.121945
1772267990046,15.114527,102.339786,111.948502,2.465031
1772267990049,24.891784,-2.651012,26.435651,-1.861929
1772267990053,13.373605,-334.359779,-279.429415,-0.449852
1772267990057,-7.030467,-432.867646,-384.779743,6.883384
1772267990061,-3.791628,-43.139601,-28.478909,12.467400
1772267990018,-7.648417,105.286454,86.973066,-5.332633
1772267990022,-1.036982,85.820404,78.664123,2.896086
1772267990026,2.967879,128.407073,115.984670,4.876663
1772267990030,5.116031,168.203801,150.230593,1.420681
1772267990034,2.864705,48.105408,41.159520,2.125005
1772267990038,-1.855311,-103.654040,-95.120020,6.683048
1772267990042,1.495310,-38.993492,-28.265333,7.121945
1772267990046,15.114527,102.339786,111.948502,2.465031
1772267990049,24.891784,-2.651012,26.435651,-1.861929
1772267990053,13.373605,-334.359779,-279.429415,-0.449852
1772267990057,-7.030467,-432.867646,-384.779743,6.883384
1772267990061,-3.791628,-43.139601,-28.478909,12.467400
1772267990018,-7.648417,105.286454,86.973066,-5.332633
1772267990022,-1.036982,85.820404,78.664123,2.896086
1772267990026,2.967879,128.407073,115.984670,4.876663
1772267990030,5.116031,168.203801,150.230593,1.420681
1772267990034,2.864705,48.105408,41.159520,2.125005
1772267990038,-1.855311,-103.654040,-95.120020,6.683048
1772267990042,1.495310,-38.993492,-28.265333,7.121945
1772267990046,15.114527,102.339786,111.948502,2.465031
1772267990049,24.891784,-2.651012,26.435651,-1.861929
1772267990053,13.373605,-334.359779,-279.429415,-0.449852
1772267990057,-7.030467,-432.867646,-384.779743,6.883384
1772267990061,-3.791628,-43.139601,-28.478909,12.467400
1772267990018,-7.648417,105.286454,86.973066,-5.332633
1772267990022,-1.036982,85.820404,78.664123,2.896086
1772267990026,2.967879,128.407073,115.984670,4.876663
1772267990030,5.116031,168.203801,150.230593,1.420681
1772267990034,2.864705,48.105408,41.159520,2.125005
1772267990038,-1.855311,-103.654040,-95.120020,6.683048
1772267990042,1.495310,-38.993492,-28.265333,7.121945
1772267990046,15.114527,102.339786,111.948502,2.465031
1772267990049,24.891784,-2.651012,26.435651,-1.861929
1772267990053,13.373605,-334.359779,-279.429415,-0.449852
1772267990057,-7.030467,-432.867646,-384.779743,6.883384
1772267990061,-3.791628,-43.139601,-28.478909,12.467400
1772267990018,-7.648417,105.286454,86.973066,-5.332633
1772267990022,-1.036982,85.820404,78.664123,2.896086
1772267990026,2.967879,128.407073,115.984670,4.876663
1772267990030,5.116031,168.203801,150.230593,1.420681
1772267990034,2.864705,48.105408,41.159520,2.125005
1772267990038,-1.855311,-103.654040,-95.120020,6.683048
1772267990042,1.495310,-38.993492,-28.265333,7.121945
1772267990046,15.114527,102.339786,111.948502,2.465031
1772267990049,24.891784,-2.651012,26.435651,-1.861929
1772267990053,13.373605,-334.359779,-279.429415,-0.449852
1772267990057,-7.030467,-432.867646,-384.779743,6.883384
1772267990061,-3.791628,-43.139601,-28.478909,12.467400
1772267990112,24.816011,28.809798,27.791512,22.601960
1772267990116,18.600190,66.283932,56.331152,19.078086
1772267990120,11.564314,144.098459,120.756550,16.602431
1772267990124,3.718824,74.660651,60.039613,17.038826
1772267990128,-2.177495,-15.227389,-15.152564,16.496132
1772267990131,-0.621517,73.610101,72.203810,12.711491
1772267990135,1.627393,136.125874,129.151216,7.724458
1772267990139,-5.740399,-51.946267,-44.720365,4.680035
1772267990143,-22.235522,-300.871922,-272.631968,4.537342
1772267990147,-27.947810,-227.542633,-204.694859,4.984643
1772267990151,-8.631373,155.767030,149.248243,1.930875
1772267990155,12.201958,402.931390,364.222466,-6.697263
1772267990112,24.816011,28.809798,27.791512,22.601960
1772267990116,18.600190,66.283932,56.331152,19.078086
1772267990120,11.564314,144.098459,120.756550,16.602431
1772267990124,3.718824,74.660651,60.039613,17.038826
1772267990128,-2.177495,-15.227389,-15.152564,16.496132
1772267990131,-0.621517,73.610101,72.203810,12.711491
1772267990135,1.627393,136.125874,129.151216,7.724458
1772267990139,-5.740399,-51.946267,-44.720365,4.680035
1772267990143,-22.235522,-300.871922,-272.631968,4.537342
1772267990147,-27.947810,-227.542633,-204.694859,4.984643
1772267990151,-8.631373,155.767030,149.248243,1.930875
1772267990155,12.201958,402.931390,364.222466,-6.697263
1772267990159,-10.120531,126.928382,86.249190,-5.705577
1772267990163,-5.706047,168.842388,125.760984,-5.833197
1772267990167,1.385149,177.242957,147.447874,-4.040600
1772267990171,7.740966,125.430081,112.837028,-3.273045
1772267990174,5.372237,-13.720252,-22.806452,-3.788253
1772267990178,-2.178317,-126.930562,-137.839508,-3.549156
1772267990182,-2.584383,-86.062350,-94.078418,-1.767977
1772267990186,7.422649,24.636215,3.796219,-2.242615
1772267990190,13.088355,93.695583,44.408243,-7.791706
1772267990194,-4.820682,-20.012578,-76.585752,-12.091556
1772267990198,-33.739463,-213.163942,-248.357330,-9.245988
1772267990202,-39.128208,-72.602829,-88.223177,-4.869161
1772267990159,-10.120531,126.928382,86.249190,-5.705577
1772267990163,-5.706047,168.842388,125.760984,-5.833197
1772267990167,1.385149,177.242957,147.447874,-4.040600
1772267990171,7.740966,125.430081,112.837028,-3.273045
1772267990174,5.372237,-13.720252,-22.806452,-3.788253
1772267990178,-2.178317,-126.930562,-137.839508,-3.549156
1772267990182,-2.584383,-86.062350,-94.078418,-1.767977
1772267990186,7.422649,24.636215,3.796219,-2.242615
1772267990190,13.088355,93.695583,44.408243,-7.791706
1772267990194,-4.820682,-20.012578,-76.585752,-12.091556
1772267990198,-33.739463,-213.163942,-248.357330,-9.245988
1772267990202,-39.128208,-72.602829,-88.223177,-4.869161
1772267990206,-14.349267,235.557237,208.874601,-16.862458
1772267990210,-15.107566,173.092524,142.492161,-21.686456
1772267990213,-20.832723,-13.492883,-32.274716,-16.453204
1772267990217,-20.091592,-98.386438,-106.211229,-6.608008
1772267990221,-6.995657,41.738600,29.573590,0.137421
1772267990225,7.773011,128.518695,118.788698,2.256770
1772267990229,12.939187,-55.523924,-33.444633,3.417736
1772267990233,6.412765,-296.832695,-245.727851,6.081893
1772267990237,-0.887757,-279.895238,-241.278491,9.785730
1772267990241,2.786839,-57.190623,-45.194977,13.312768
1772267990245,11.264070,74.559364,78.684500,14.132338
1772267990249,15.974864,104.226986,102.891832,10.838235
1772267990253,14.446622,115.854703,101.941320,7.105534
1772267990256,8.698389,36.256215,23.175668,5.503942
1772267990260,3.500145,-92.528633,-87.088896,4.495654
1772267990264,-2.060600,-137.795458,-126.095405,3.336049
1772267990268,-4.125398,-0.114552,-12.674701,1.329375
1772267990272,0.510310,191.465313,156.998891,-1.201485
1772267990276,5.477237,117.040650,102.165440,-3.051584
1772267990280,5.527634,-190.033498,-165.096334,-1.918329
1772267990284,-2.223442,-380.892713,-346.130489,5.578141
1772267990288,-6.572100,-251.212977,-236.135993,12.915662
1772267990292,7.745244,73.994207,72.345383,8.628465
1772267990295,26.738536,236.914163,229.482157,-4.704938
1772267990206,-14.349267,235.557237,208.874601,-16.862458
1772267990210,-15.107566,173.092524,142.492161,-21.686456
1772267990213,-20.832723,-13.492883,-32.274716,-16.453204
1772267990217,-20.091592,-98.386438,-106.211229,-6.608008
1772267990221,-6.995657,41.738600,29.573590,0.137421
1772267990225,7.773011,128.518695,118.788698,2.256770
1772267990229,12.939187,-55.523924,-33.444633,3.417736
1772267990233,6.412765,-296.832695,-245.727851,6.081893
1772267990237,-0.887757,-279.895238,-241.278491,9.785730
1772267990241,2.786839,-57.190623,-45.194977,13.312768
1772267990245,11.264070,74.559364,78.684500,14.132338
1772267990249,15.974864,104.226986,102.891832,10.838235
1772267990253,14.446622,115.854703,101.941320,7.105534
1772267990256,8.698389,36.256215,23.175668,5.503942
1772267990260,3.500145,-92.528633,-87.088896,4.495654
1772267990264,-2.060600,-137.795458,-126.095405,3.336049
1772267990268,-4.125398,-0.114552,-12.674701,1.329375
1772267990272,0.510310,191.465313,156.998891,-1.201485
1772267990276,5.477237,117.040650,102.165440,-3.051584
1772267990280,5.527634,-190.033498,-165.096334,-1.918329
1772267990284,-2.223442,-380.892713,-346.130489,5.578141
1772267990288,-6.572100,-251.212977,-236.135993,12.915662
1772267990292,7.745244,73.994207,72.345383,8.628465
1772267990295,26.738536,236.914163,229.482157,-4.704938
1772267990346,10.040323,56.237875,37.696293,-3.971346
1772267990350,13.954924,71.558129,49.596646,-0.101602
1772267990354,16.253564,39.129980,18.797738,6.559308
1772267990358,17.881766,90.763104,61.581735,11.366352
1772267990362,20.847816,195.006457,155.653688,7.617439
1772267990366,19.726569,117.126485,83.301151,-0.525202
1772267990370,9.716409,-139.964265,-147.038052,-3.660613
1772267990374,-4.316762,-283.258044,-265.355288,0.379777
1772267990378,-3.893230,-157.559846,-136.826734,4.330769
1772267990381,13.548251,61.206951,71.365443,1.846438
1772267990385,22.039410,123.732476,112.981011,-3.035838
1772267990389,6.487525,-31.668968,-54.386314,-1.666586
1772267990346,10.040323,56.237875,37.696293,-3.971346
1772267990350,13.954924,71.558129,49.596646,-0.101602
1772267990354,16.253564,39.129980,18.797738,6.559308
1772267990358,17.881766,90.763104,61.581735,11.366352
1772267990362,20.847816,195.006457,155.653688,7.617439
1772267990366,19.726569,117.126485,83.301151,-0.525202
1772267990370,9.716409,-139.964265,-147.038052,-3.660613
1772267990374,-4.316762,-283.258044,-265.355288,0.379777
1772267990378,-3.893230,-157.559846,-136.826734,4.330769
1772267990381,13.548251,61.206951,71.365443,1.846438
1772267990385,22.039410,123.732476,112.981011,-3.035838
1772267990389,6.487525,-31.668968,-54.386314,-1.666586
1772267990440,-6.480469,82.324256,61.211386,11.547060
1772267990444,-8.301416,97.629872,78.230012,5.610706
1772267990448,-8.445369,186.591667,154.879438,-1.665596
1772267990452,-6.639302,212.877655,176.222964,-6.754899
1772267990456,-8.658402,27.351202,5.906944,-7.762571
1772267990460,-11.356783,-186.976322,-184.621186,-2.418567
1772267990463,-6.844675,-162.822879,-147.835435,4.577757
1772267990467,8.741018,24.088884,44.186372,4.992723
1772267990471,23.426939,26.639452,61.748476,-1.275552
1772267990475,14.782058,-236.242990,-194.380843,-6.179823
1772267990479,-8.997186,-399.346000,-375.813975,-2.250978
1772267990483,-14.717677,-176.974536,-177.740597,6.372811
1772267990440,-6.480469,82.324256,61.211386,11.547060
1772267990444,-8.301416,97.629872,78.230012,5.610706
1772267990448,-8.445369,186.591667,154.879438,-1.665596
1772267990452,-6.639302,212.877655,176.222964,-6.754899
1772267990456,-8.658402,27.351202,5.906944,-7.762571
1772267990460,-11.356783,-186.976322,-184.621186,-2.418567
1772267990463,-6.844675,-162.822879,-147.835435,4.577757
1772267990467,8.741018,24.088884,44.186372,4.992723
1772267990471,23.426939,26.639452,61.748476,-1.275552
1772267990475,14.782058,-236.242990,-194.380843,-6.179823
1772267990479,-8.997186,-399.346000,-375.813975,-2.250978
1772267990483,-14.717677,-176.974536,-177.740597,6.372811
1772267990440,-6.480469,82.324256,61.211386,11.547060
1772267990444,-8.301416,97.629872,78.230012,5.610706
1772267990448,-8.445369,186.591667,154.879438,-1.665596
1772267990452,-6.639302,212.877655,176.222964,-6.754899
1772267990456,-8.658402,27.351202,5.906944,-7.762571
1772267990460,-11.356783,-186.976322,-184.621186,-2.418567
1772267990463,-6.844675,-162.822879,-147.835435,4.577757
1772267990467,8.741018,24.088884,44.186372,4.992723
1772267990471,23.426939,26.639452,61.748476,-1.275552
1772267990475,14.782058,-236.242990,-194.380843,-6.179823
1772267990479,-8.997186,-399.346000,-375.813975,-2.250978
1772267990483,-14.717677,-176.974536,-177.740597,6.372811
1772267990440,-6.480469,82.324256,61.211386,11.547060
1772267990444,-8.301416,97.629872,78.230012,5.610706
1772267990448,-8.445369,186.591667,154.879438,-1.665596
1772267990452,-6.639302,212.877655,176.222964,-6.754899
1772267990456,-8.658402,27.351202,5.906944,-7.762571
1772267990460,-11.356783,-186.976322,-184.621186,-2.418567
1772267990463,-6.844675,-162.822879,-147.835435,4.577757
1772267990467,8.741018,24.088884,44.186372,4.992723
1772267990471,23.426939,26.639452,61.748476,-1.275552
1772267990475,14.782058,-236.242990,-194.380843,-6.179823
1772267990479,-8.997186,-399.346000,-375.813975,-2.250978
1772267990483,-14.717677,-176.974536,-177.740597,6.372811
1772267990393,9.834535,190.711242,167.994183,3.302454
1772267990397,6.420490,133.782310,107.849072,0.745037
1772267990401,3.134872,122.130643,84.733622,-1.414087
1772267990405,-0.364408,62.672052,28.996643,-1.688511
1772267990409,0.048467,-9.892333,-21.140207,-0.397357
1772267990413,7.984823,54.628003,53.260248,0.774972
1772267990417,16.598568,130.670548,118.270169,-0.732205
1772267990420,16.284098,50.846172,22.941802,-3.328196
1772267990424,4.118409,-197.381698,-234.333881,0.914111
1772267990428,-5.121406,-285.444713,-321.199071,10.724834
1772267990432,3.578232,66.951452,33.844303,15.218300
1772267990436,19.465564,442.630274,398.942251,10.337481
1772267990393,9.834535,190.711242,167.994183,3.302454
1772267990397,6.420490,133.782310,107.849072,0.745037
1772267990401,3.134872,122.130643,84.733622,-1.414087
1772267990405,-0.364408,62.672052,28.996643,-1.688511
1772267990409,0.048467,-9.892333,-21.140207,-0.397357
1772267990413,7.984823,54.628003,53.260248,0.774972
1772267990417,16.598568,130.670548,118.270169,-0.732205
1772267990420,16.284098,50.846172,22.941802,-3.328196
1772267990424,4.118409,-197.381698,-234.333881,0.914111
1772267990428,-5.121406,-285.444713,-321.199071,10.724834
1772267990432,3.578232,66.951452,33.844303,15.218300
1772267990436,19.465564,442.630274,398.942251,10.337481
1772267990440,-6.480469,82.324256,61.211386,11.547060
1772267990444,-8.301416,97.629872,78.230012,5.610706
1772267990448,-8.445369,186.591667,154.879438,-1.665596
1772267990452,-6.639302,212.877655,176.222964,-6.754899
1772267990456,-8.658402,27.351202,5.906944,-7.762571
1772267990460,-11.356783,-186.976322,-184.621186,-2.418567
1772267990463,-6.844675,-162.822879,-147.835435,4.577757
1772267990467,8.741018,24.088884,44.186372,4.992723
1772267990471,23.426939,26.639452,61.748476,-1.275552
1772267990475,14.782058,-236.242990,-194.380843,-6.179823
1772267990479,-8.997186,-399.346000,-375.813975,-2.250978
1772267990483,-14.717677,-176.974536,-177.740597,6.372811
1772267990440,-6.480469,82.324256,61.211386,11.547060
1772267990444,-8.301416,97.629872,78.230012,5.610706
1772267990448,-8.445369,186.591667,154.879438,-1.665596
1772267990452,-6.639302,212.877655,176.222964,-6.754899
1772267990456,-8.658402,27.351202,5.906944,-7.762571
1772267990460,-11.356783,-186.976322,-184.621186,-2.418567
1772267990463,-6.844675,-162.822879,-147.835435,4.577757
1772267990467,8.741018,24.088884,44.186372,4.992723
1772267990471,23.426939,26.639452,61.748476,-1.275552
1772267990475,14.782058,-236.242990,-194.380843,-6.179823
1772267990479,-8.997186,-399.346000,-375.813975,-2.250978
1772267990483,-14.717677,-176.974536,-177.740597,6.372811
1772267990487,4.463281,11.100528,2.831601,-1.978989
1772267990491,1.603867,119.686586,99.445014,-3.738371
1772267990495,-2.054188,224.114053,184.912935,-3.825346
1772267990499,-1.069175,181.432117,150.228475,-1.494692
1772267990503,7.595450,102.472353,96.199136,0.098306
1772267990506,13.737120,23.225808,32.203400,0.371106
1772267990510,9.533889,-94.584976,-78.423517,2.673550
1772267990514,-0.070851,-240.524351,-209.464902,8.789750
1772267990518,0.272687,-206.251115,-166.044584,13.291881
1772267990522,14.320667,64.315179,87.496086,9.417057
1772267990526,22.259803,164.712062,166.102642,-0.243107
1772267990530,6.355659,-53.077562,-59.297494,-3.190117
1772267990487,4.463281,11.100528,2.831601,-1.978989
1772267990491,1.603867,119.686586,99.445014,-3.738371
1772267990495,-2.054188,224.114053,184.912935,-3.825346
1772267990499,-1.069175,181.432117,150.228475,-1.494692
1772267990503,7.595450,102.472353,96.199136,0.098306
1772267990506,13.737120,23.225808,32.203400,0.371106
1772267990510,9.533889,-94.584976,-78.423517,2.673550
1772267990514,-0.070851,-240.524351,-209.464902,8.789750
1772267990518,0.272687,-206.251115,-166.044584,13.291881
1772267990522,14.320667,64.315179,87.496086,9.417057
1772267990526,22.259803,164.712062,166.102642,-0.243107
1772267990530,6.355659,-53.077562,-59.297494,-3.190117
1772267990534,4.677745,73.989864,66.285811,3.133662
1772267990538,1.368861,74.328172,57.614300,1.193146
1772267990542,-0.164182,129.205511,103.042597,-3.051441
1772267990545,-1.417802,73.870289,60.630465,-4.822542
1772267990549,-1.162328,12.347849,16.155009,-3.747839
1772267990553,5.017379,97.761540,98.756212,-1.391138
1772267990557,14.989211,137.102854,137.260542,-0.044512
1772267990561,15.067538,-60.608159,-37.601847,-1.427145
1772267990565,-2.386069,-314.625089,-276.542494,-2.361553
1772267990569,-16.367672,-277.004475,-251.617145,-0.111087
1772267990573,-6.871478,51.187195,58.148378,2.230873
1772267990577,13.580262,374.477679,356.186884,-2.337839
1772267990534,4.677745,73.989864,66.285811,3.133662
1772267990538,1.368861,74.328172,57.614300,1.193146
1772267990542,-0.164182,129.205511,103.042597,-3.051441
1772267990545,-1.417802,73.870289,60.630465,-4.822542
1772267990549,-1.162328,12.347849,16.155009,-3.747839
1772267990553,5.017379,97.761540,98.756212,-1.391138
1772267990557,14.989211,137.102854,137.260542,-0.044512
1772267990561,15.067538,-60.608159,-37.601847,-1.427145
1772267990565,-2.386069,-314.625089,-276.542494,-2.361553
1772267990569,-16.367672,-277.004475,-251.617145,-0.111087
1772267990573,-6.871478,51.187195,58.148378,2.230873
1772267990577,13.580262,374.477679,356.186884,-2.337839
1772267990721,-17.742762,44.354733,34.215389,-7.709668
1772267990725,-17.625969,64.267516,54.868404,-7.237574
1772267990729,-12.642270,44.336942,39.512100,-6.943396
1772267990733,-5.580140,99.937799,84.211219,-6.441241
1772267990737,-6.505587,44.795916,26.637267,-3.505040
1772267990741,-14.289031,-142.996213,-138.413333,1.072968
1772267990745,-18.567773,-245.866177,-213.646507,3.398296
1772267990749,-8.179525,-96.975602,-59.155430,-0.945696
1772267990752,7.985056,69.776672,102.584346,-10.553611
1772267990756,4.908134,-119.078871,-76.418148,-18.031275
1772267990760,-19.491275,-394.489654,-348.963745,-17.603132
1772267990764,-38.054107,-289.580180,-267.936131,-10.967000
1772267990721,-17.742762,44.354733,34.215389,-7.709668
1772267990725,-17.625969,64.267516,54.868404,-7.237574
1772267990729,-12.642270,44.336942,39.512100,-6.943396
1772267990733,-5.580140,99.937799,84.211219,-6.441241
1772267990737,-6.505587,44.795916,26.637267,-3.505040
1772267990741,-14.289031,-142.996213,-138.413333,1.072968
1772267990745,-18.567773,-245.866177,-213.646507,3.398296
1772267990749,-8.179525,-96.975602,-59.155430,-0.945696
1772267990752,7.985056,69.776672,102.584346,-10.553611
1772267990756,4.908134,-119.078871,-76.418148,-18.031275
1772267990760,-19.491275,-394.489654,-348.963745,-17.603132
1772267990764,-38.054107,-289.580180,-267.936131,-10.967000
1772267990768,-16.787156,69.410413,55.940677,-16.512896
1772267990772,-16.513409,122.393510,108.310236,-15.138993
1772267990776,-17.141682,141.432250,128.163482,-13.962275
1772267990780,-14.381175,132.123414,121.603608,-10.423199
1772267990784,-6.548363,119.055416,116.709288,-5.186934
1772267990788,-0.313473,73.302458,81.772035,0.053290
1772267990792,-4.979317,-53.260526,-30.728340,4.828807
1772267990795,-21.082704,-222.651289,-182.950627,10.034868
1772267990799,-27.779965,-255.226063,-196.029513,13.011469
1772267990803,-13.759371,-61.233824,-1.678317,7.091661
1772267990807,2.621824,171.012951,194.655095,-6.338140
1772267990811,-3.171889,97.439885,94.886363,-13.431191
1772267990768,-16.787156,69.410413,55.940677,-16.512896
1772267990772,-16.513409,122.393510,108.310236,-15.138993
1772267990776,-17.141682,141.432250,128.163482,-13.962275
1772267990780,-14.381175,132.123414,121.603608,-10.423199
1772267990784,-6.548363,119.055416,116.709288,-5.186934
1772267990788,-0.313473,73.302458,81.772035,0.053290
1772267990792,-4.979317,-53.260526,-30.728340,4.828807
1772267990795,-21.082704,-222.651289,-182.950627,10.034868
1772267990799,-27.779965,-255.226063,-196.029513,13.011469
1772267990803,-13.759371,-61.233824,-1.678317,7.091661
1772267990807,2.621824,171.012951,194.655095,-6.338140
1772267990811,-3.171889,97.439885,94.886363,-13.431191
1772267990815,-7.330343,94.488149,101.935543,-4.379296
1772267990819,-6.002190,66.711008,67.462953,-3.410575
1772267990823,-4.948904,117.086212,104.468745,-4.110694
1772267990827,-4.802901,70.401194,65.008861,-4.511456
1772267990831,-3.933622,-31.913948,-10.374665,-1.015966
1772267990834,0.688785,-21.992220,13.298147,5.531740
1772267990838,10.897685,89.379431,116.526933,8.106830
1772267990842,16.060502,97.855018,106.785643,5.682963
1772267990846,4.454451,-148.808318,-158.355233,5.416825
1772267990850,-9.294365,-328.709536,-336.703592,10.869776
1772267990854,-0.689367,-80.564577,-70.723994,18.558095
1772267990858,26.095425,375.124087,381.506599,18.832995
1772267990862,8.720763,41.517911,67.557422,17.922006
1772267990866,5.634985,78.992720,96.211027,15.885752
1772267990870,5.806835,201.997887,199.508017,12.499461
1772267990874,8.412676,211.487225,209.040338,10.472086
1772267990877,4.443843,28.938345,42.005289,8.603522
1772267990881,-4.677055,-140.619916,-117.107716,6.523308
1772267990885,-7.085843,-169.597115,-138.983272,7.335670
1772267990889,7.460942,-52.638152,-11.751161,7.958259
1772267990893,25.892945,77.450940,118.751138,2.894239
1772267990897,23.836806,-2.533986,23.359024,-4.679227
1772267990901,2.100011,-233.326995,-216.720688,-5.448485
1772267990905,-12.059480,-225.249409,-212.147071,2.059782
1772267990815,-7.330343,94.488149,101.935543,-4.379296
1772267990819,-6.002190,66.711008,67.462953,-3.410575
1772267990823,-4.948904,117.086212,104.468745,-4.110694
1772267990827,-4.802901,70.401194,65.008861,-4.511456
1772267990831,-3.933622,-31.913948,-10.374665,-1.015966
1772267990834,0.688785,-21.992220,13.298147,5.531740
1772267990838,10.897685,89.379431,116.526933,8.106830
1772267990842,16.060502,97.855018,106.785643,5.682963
1772267990846,4.454451,-148.808318,-158.355233,5.416825
1772267990850,-9.294365,-328.709536,-336.703592,10.869776
1772267990854,-0.689367,-80.564577,-70.723994,18.558095
1772267990858,26.095425,375.124087,381.506599,18.832995
1772267990862,8.720763,41.517911,67.557422,17.922006
1772267990866,5.634985,78.992720,96.211027,15.885752
1772267990870,5.806835,201.997887,199.508017,12.499461
1772267990874,8.412676,211.487225,209.040338,10.472086
1772267990877,4.443843,28.938345,42.005289,8.603522
1772267990881,-4.677055,-140.619916,-117.107716,6.523308
1772267990885,-7.085843,-169.597115,-138.983272,7.335670
1772267990889,7.460942,-52.638152,-11.751161,7.958259
1772267990893,25.892945,77.450940,118.751138,2.894239
1772267990897,23.836806,-2.533986,23.359024,-4.679227
1772267990901,2.100011,-233.326995,-216.720688,-5.448485
1772267990905,-12.059480,-225.249409,-212.147071,2.059782
1772267990815,-7.330343,94.488149,101.935543,-4.379296
1772267990819,-6.002190,66.711008,67.462953,-3.410575
1772267990823,-4.948904,117.086212,104.468745,-4.110694
1772267990827,-4.802901,70.401194,65.008861,-4.511456
1772267990831,-3.933622,-31.913948,-10.374665,-1.015966
1772267990834,0.688785,-21.992220,13.298147,5.531740
1772267990838,10.897685,89.379431,116.526933,8.106830
1772267990842,16.060502,97.855018,106.785643,5.682963
1772267990846,4.454451,-148.808318,-158.355233,5.416825
1772267990850,-9.294365,-328.709536,-336.703592,10.869776
1772267990854,-0.689367,-80.564577,-70.723994,18.558095
1772267990858,26.095425,375.124087,381.506599,18.832995
1772267990862,8.720763,41.517911,67.557422,17.922006
1772267990866,5.634985,78.992720,96.211027,15.885752
1772267990870,5.806835,201.997887,199.508017,12.499461
1772267990874,8.412676,211.487225,209.040338,10.472086
1772267990877,4.443843,28.938345,42.005289,8.603522
1772267990881,-4.677055,-140.619916,-117.107716,6.523308
1772267990885,-7.085843,-169.597115,-138.983272,7.335670
1772267990889,7.460942,-52.638152,-11.751161,7.958259
1772267990893,25.892945,77.450940,118.751138,2.894239
1772267990897,23.836806,-2.533986,23.359024,-4.679227
1772267990901,2.100011,-233.326995,-216.720688,-5.448485
1772267990905,-12.059480,-225.249409,-212.147071,2.059782
1772267990815,-7.330343,94.488149,101.935543,-4.379296
1772267990819,-6.002190,66.711008,67.462953,-3.410575
1772267990823,-4.948904,117.086212,104.468745,-4.110694
1772267990827,-4.802901,70.401194,65.008861,-4.511456
1772267990831,-3.933622,-31.913948,-10.374665,-1.015966
1772267990834,0.688785,-21.992220,13.298147,5.531740
1772267990838,10.897685,89.379431,116.526933,8.106830
1772267990842,16.060502,97.855018,106.785643,5.682963
1772267990846,4.454451,-148.808318,-158.355233,5.416825
1772267990850,-9.294365,-328.709536,-336.703592,10.869776
1772267990854,-0.689367,-80.564577,-70.723994,18.558095
1772267990858,26.095425,375.124087,381.506599,18.832995
1772267990862,8.720763,41.517911,67.557422,17.922006
1772267990866,5.634985,78.992720,96.211027,15.885752
1772267990870,5.806835,201.997887,199.508017,12.499461
1772267990874,8.412676,211.487225,209.040338,10.472086
1772267990877,4.443843,28.938345,42.005289,8.603522
1772267990881,-4.677055,-140.619916,-117.107716,6.523308
1772267990885,-7.085843,-169.597115,-138.983272,7.335670
1772267990889,7.460942,-52.638152,-11.751161,7.958259
1772267990893,25.892945,77.450940,118.751138,2.894239
1772267990897,23.836806,-2.533986,23.359024,-4.679227
1772267990901,2.100011,-233.326995,-216.720688,-5.448485
1772267990905,-12.059480,-225.249409,-212.147071,2.059782
1772267990815,-7.330343,94.488149,101.935543,-4.379296
1772267990819,-6.002190,66.711008,67.462953,-3.410575
1772267990823,-4.948904,117.086212,104.468745,-4.110694
1772267990827,-4.802901,70.401194,65.008861,-4.511456
1772267990831,-3.933622,-31.913948,-10.374665,-1.015966
1772267990834,0.688785,-21.992220,13.298147,5.531740
1772267990838,10.897685,89.379431,116.526933,8.106830
1772267990842,16.060502,97.855018,106.785643,5.682963
1772267990846,4.454451,-148.808318,-158.355233,5.416825
1772267990850,-9.294365,-328.709536,-336.703592,10.869776
1772267990854,-0.689367,-80.564577,-70.723994,18.558095
1772267990858,26.095425,375.124087,381.506599,18.832995
1772267990862,8.720763,41.517911,67.557422,17.922006
1772267990866,5.634985,78.992720,96.211027,15.885752
1772267990870,5.806835,201.997887,199.508017,12.499461
1772267990874,8.412676,211.487225,209.040338,10.472086
1772267990877,4.443843,28.938345,42.005289,8.603522
1772267990881,-4.677055,-140.619916,-117.107716,6.523308
1772267990885,-7.085843,-169.597115,-138.983272,7.335670
1772267990889,7.460942,-52.638152,-11.751161,7.958259
1772267990893,25.892945,77.450940,118.751138,2.894239
1772267990897,23.836806,-2.533986,23.359024,-4.679227
1772267990901,2.100011,-233.326995,-216.720688,-5.448485
1772267990905,-12.059480,-225.249409,-212.147071,2.059782
1772267990909,11.691546,64.994987,66.573283,-3.448176
1772267990913,9.898332,127.505607,119.605540,-3.544197
1772267990917,7.151263,153.154845,137.093587,-2.160914
1772267990920,4.605693,110.266779,102.686465,-2.251473
1772267990924,6.246426,100.942663,100.574482,-5.117400
1772267990928,12.846810,109.173167,108.822526,-6.854333
1772267990932,12.918022,10.381147,20.725025,-7.254439
1772267990936,-0.224929,-206.702329,-173.263542,-6.200004
1772267990940,-6.568055,-173.260567,-142.526342,-4.061073
1772267990944,8.190760,161.068794,158.190774,-5.994838
1772267990948,27.595642,324.334457,300.806760,-13.494780
1772267990952,24.520107,160.788799,130.765616,-18.913966
1772267990909,11.691546,64.994987,66.573283,-3.448176
1772267990913,9.898332,127.505607,119.605540,-3.544197
1772267990917,7.151263,153.154845,137.093587,-2.160914
1772267990920,4.605693,110.266779,102.686465,-2.251473
1772267990924,6.246426,100.942663,100.574482,-5.117400
1772267990928,12.846810,109.173167,108.822526,-6.854333
1772267990932,12.918022,10.381147,20.725025,-7.254439
1772267990936,-0.224929,-206.702329,-173.263542,-6.200004
1772267990940,-6.568055,-173.260567,-142.526342,-4.061073
1772267990944,8.190760,161.068794,158.190774,-5.994838
1772267990948,27.595642,324.334457,300.806760,-13.494780
1772267990952,24.520107,160.788799,130.765616,-18.913966
1772267990956,14.076430,200.689828,163.178408,-11.553955
1772267990959,12.635511,193.324456,142.916589,-12.431440
1772267990963,13.651324,154.914907,109.415217,-12.903201
1772267990967,15.681006,82.981832,53.457995,-12.942122
1772267990971,16.313751,81.817436,58.187049,-11.987306
1772267990975,16.478085,118.069258,96.250361,-8.731456
1772267990979,19.774288,95.879023,88.391453,-6.947949
1772267990983,18.165389,4.891370,8.938994,-9.551452
1772267990987,4.158466,-76.650311,-85.188251,-11.020427
1772267990991,-11.819877,-36.033969,-61.915318,-7.684267
1772267990995,-14.368000,170.571544,137.427216,-2.512072
1772267990999,2.878760,487.663378,435.572548,-3.958353
1772267990956,14.076430,200.689828,163.178408,-11.553955
1772267990959,12.635511,193.324456,142.916589,-12.431440
1772267990963,13.651324,154.914907,109.415217,-12.903201
1772267990967,15.681006,82.981832,53.457995,-12.942122
1772267990971,16.313751,81.817436,58.187049,-11.987306
1772267990975,16.478085,118.069258,96.250361,-8.731456
1772267990979,19.774288,95.879023,88.391453,-6.947949
1772267990983,18.165389,4.891370,8.938994,-9.551452
1772267990987,4.158466,-76.650311,-85.188251,-11.020427
1772267990991,-11.819877,-36.033969,-61.915318,-7.684267
1772267990995,-14.368000,170.571544,137.427216,-2.512072
1772267990999,2.878760,487.663378,435.572548,-3.958353
1772267991049,-5.163558,-71.154521,-57.587572,-0.405838
1772267991053,-5.572035,27.970015,24.893920,-0.881125
1772267991057,-9.176171,-24.387918,-29.052483,-2.544728
1772267991061,-12.778492,10.523835,-2.546580,-4.754084
1772267991065,-9.734068,136.916883,118.980669,-3.845241
1772267991069,-1.675571,152.491137,149.358389,-1.388389
1772267991073,-0.060420,-50.147552,-32.065911,-0.544188
1772267991077,-9.375403,-328.522321,-301.181151,3.596603
1772267991081,-14.957692,-333.821197,-308.711960,12.815235
1772267991084,-3.718165,-79.373606,-66.100353,17.879885
1772267991088,16.263412,127.709597,117.193613,13.010799
1772267991092,16.740201,54.799317,30.891187,8.612709
1772267991096,1.154420,102.463366,85.184123,20.154668
1772267991100,2.024258,81.070827,79.321100,21.386938
1772267991104,6.162845,24.710793,33.400613,16.320667
1772267991108,5.231455,10.359718,15.761976,8.226821
1772267991112,0.168104,54.362014,49.936254,3.075131
1772267991116,-1.133566,86.122282,81.477939,3.765995
1772267991120,4.853433,71.868979,82.452108,4.407270
1772267991124,8.439685,-45.415162,-15.319774,1.593949
1772267991127,-0.414930,-306.764476,-258.205431,2.739615
1772267991131,-16.223696,-498.759014,-433.465456,10.583665
1772267991135,-21.946069,-287.453631,-236.757803,16.663902
1772267991139,-4.945746,220.973816,227.079965,13.642869
1772267991143,-13.930652,37.630580,40.616045,7.046523
1772267991147,-15.440347,-4.777694,4.561155,6.034112
1772267991151,-12.949972,27.371776,31.302397,6.308337
1772267991155,-4.699957,106.451564,99.449767,9.191537
1772267991159,1.176001,29.950442,32.433173,12.816162
1772267991163,-3.951528,-166.928807,-140.902866,16.404411
1772267991166,-14.204027,-279.973529,-238.982362,18.716638
1772267991170,-12.266589,-146.761347,-108.182386,15.497231
1772267991174,1.995048,-14.355616,24.002924,5.839913
1772267991178,7.021789,-166.288105,-119.543346,-5.841866
1772267991182,-14.785164,-425.530917,-384.359244,-10.865406
1772267991186,-42.850927,-468.645255,-444.883392,-3.638232
1772267991143,-13.930652,37.630580,40.616045,7.046523
1772267991147,-15.440347,-4.777694,4.561155,6.034112
1772267991151,-12.949972,27.371776,31.302397,6.308337
1772267991155,-4.699957,106.451564,99.449767,9.191537
1772267991159,1.176001,29.950442,32.433173,12.816162
1772267991163,-3.951528,-166.928807,-140.902866,16.404411
1772267991166,-14.204027,-279.973529,-238.982362,18.716638
1772267991170,-12.266589,-146.761347,-108.182386,15.497231
1772267991174,1.995048,-14.355616,24.002924,5.839913
1772267991178,7.021789,-166.288105,-119.543346,-5.841866
1772267991182,-14.785164,-425.530917,-384.359244,-10.865406
1772267991186,-42.850927,-468.645255,-444.883392,-3.638232
1772267991190,-16.033278,-97.767862,-94.179525,-1.866562
1772267991194,-11.506430,-36.862992,-36.909991,0.826310
1772267991198,-13.247197,-9.935844,-18.551404,1.699656
1772267991202,-14.223093,-74.206071,-72.465988,2.349085
1772267991206,-7.298879,-118.308718,-97.446289,3.834395
1772267991209,4.777399,-49.307076,-26.838923,5.172122
1772267991213,7.242640,-40.669226,-24.850325,5.214666
1772267991217,-6.268745,-240.283791,-215.122515,4.871799
1772267991221,-17.018937,-434.973480,-383.002953,5.560190
1772267991225,-7.977714,-318.568606,-264.652738,3.374130
1772267991229,13.818731,25.722849,37.411216,-5.433869
1772267991233,17.171908,100.922682,78.434847,-15.164100
1772267991190,-16.033278,-97.767862,-94.179525,-1.866562
1772267991194,-11.506430,-36.862992,-36.909991,0.826310
1772267991198,-13.247197,-9.935844,-18.551404,1.699656
1772267991202,-14.223093,-74.206071,-72.465988,2.349085
1772267991206,-7.298879,-118.308718,-97.446289,3.834395
1772267991209,4.777399,-49.307076,-26.838923,5.172122
1772267991213,7.242640,-40.669226,-24.850325,5.214666
1772267991217,-6.268745,-240.283791,-215.122515,4.871799
1772267991221,-17.018937,-434.973480,-383.002953,5.560190
1772267991225,-7.977714,-318.568606,-264.652738,3.374130
1772267991229,13.818731,25.722849,37.411216,-5.433869
1772267991233,17.171908,100.922682,78.434847,-15.164100
1772267991190,-16.033278,-97.767862,-94.179525,-1.866562
1772267991194,-11.506430,-36.862992,-36.909991,0.826310
1772267991198,-13.247197,-9.935844,-18.551404,1.699656
1772267991202,-14.223093,-74.206071,-72.465988,2.349085
1772267991206,-7.298879,-118.308718,-97.446289,3.834395
1772267991209,4.777399,-49.307076,-26.838923,5.172122
1772267991213,7.242640,-40.669226,-24.850325,5.214666
1772267991217,-6.268745,-240.283791,-215.122515,4.871799
1772267991221,-17.018937,-434.973480,-383.002953,5.560190
1772267991225,-7.977714,-318.568606,-264.652738,3.374130
1772267991229,13.818731,25.722849,37.411216,-5.433869
1772267991233,17.171908,100.922682,78.434847,-15.164100
1772267991190,-16.033278,-97.767862,-94.179525,-1.866562
1772267991194,-11.506430,-36.862992,-36.909991,0.826310
1772267991198,-13.247197,-9.935844,-18.551404,1.699656
1772267991202,-14.223093,-74.206071,-72.465988,2.349085
1772267991206,-7.298879,-118.308718,-97.446289,3.834395
1772267991209,4.777399,-49.307076,-26.838923,5.172122
1772267991213,7.242640,-40.669226,-24.850325,5.214666
1772267991217,-6.268745,-240.283791,-215.122515,4.871799
1772267991221,-17.018937,-434.973480,-383.002953,5.560190
1772267991225,-7.977714,-318.568606,-264.652738,3.374130
1772267991229,13.818731,25.722849,37.411216,-5.433869
1772267991233,17.171908,100.922682,78.434847,-15.164100
1772267991331,-106.078302,72.647829,20.499986,-108.277716
1772267991334,-108.134706,116.954313,60.622026,-103.201304
1772267991338,-106.753390,102.097727,55.098455,-99.602400
1772267991342,-100.068930,75.137210,42.630796,-93.708751
1772267991346,-87.951337,109.750249,79.420251,-83.113465
1772267991350,-69.183305,143.928499,115.934358,-72.491703
1772267991354,-54.956352,-10.924831,-12.483166,-64.968833
1772267991358,-53.854999,-245.741076,-220.779842,-54.823516
1772267991362,-51.774399,-197.523795,-182.359329,-38.315233
1772267991366,-29.875850,78.300294,71.027038,-20.908366
1772267991370,9.248128,259.451586,253.767829,-10.667549
1772267991373,30.969123,164.346385,173.932382,-5.631030
1772267991331,-106.078302,72.647829,20.499986,-108.277716
1772267991334,-108.134706,116.954313,60.622026,-103.201304
1772267991338,-106.753390,102.097727,55.098455,-99.602400
1772267991342,-100.068930,75.137210,42.630796,-93.708751
1772267991346,-87.951337,109.750249,79.420251,-83.113465
1772267991350,-69.183305,143.928499,115.934358,-72.491703
1772267991354,-54.956352,-10.924831,-12.483166,-64.968833
1772267991358,-53.854999,-245.741076,-220.779842,-54.823516
1772267991362,-51.774399,-197.523795,-182.359329,-38.315233
1772267991366,-29.875850,78.300294,71.027038,-20.908366
1772267991370,9.248128,259.451586,253.767829,-10.667549
1772267991373,30.969123,164.346385,173.932382,-5.631030
1772267991284,-20.158756,-10.387607,-31.727406,-40.489482
1772267991288,-29.109191,60.813922,29.281437,-50.855352
1772267991291,-38.850702,164.632411,117.239863,-59.334809
1772267991295,-44.618805,163.162145,115.453964,-62.557205
1772267991299,-51.899919,54.627489,17.058690,-66.084999
1772267991303,-69.072830,-88.947052,-116.495093,-76.260300
1772267991307,-87.851515,-232.780481,-244.659775,-89.145174
1772267991311,-89.317288,-243.784456,-236.950381,-98.254433
1772267991315,-77.931974,-97.080495,-91.980929,-105.002945
1772267991319,-77.277399,-24.171079,-40.374307,-114.762353
1772267991323,-99.766033,-194.539396,-219.101848,-121.691590
1772267991327,-127.110854,-310.013042,-335.523595,-113.697779
1772267991284,-20.158756,-10.387607,-31.727406,-40.489482
1772267991288,-29.109191,60.813922,29.281437,-50.855352
1772267991291,-38.850702,164.632411,117.239863,-59.334809
1772267991295,-44.618805,163.162145,115.453964,-62.557205
1772267991299,-51.899919,54.627489,17.058690,-66.084999
1772267991303,-69.072830,-88.947052,-116.495093,-76.260300
1772267991307,-87.851515,-232.780481,-244.659775,-89.145174
1772267991311,-89.317288,-243.784456,-236.950381,-98.254433
1772267991315,-77.931974,-97.080495,-91.980929,-105.002945
1772267991319,-77.277399,-24.171079,-40.374307,-114.762353
1772267991323,-99.766033,-194.539396,-219.101848,-121.691590
1772267991327,-127.110854,-310.013042,-335.523595,-113.697779
1772267991331,-106.078302,72.647829,20.499986,-108.277716
1772267991334,-108.134706,116.954313,60.622026,-103.201304
1772267991338,-106.753390,102.097727,55.098455,-99.602400
1772267991342,-100.068930,75.137210,42.630796,-93.708751
1772267991346,-87.951337,109.750249,79.420251,-83.113465
1772267991350,-69.183305,143.928499,115.934358,-72.491703
1772267991354,-54.956352,-10.924831,-12.483166,-64.968833
1772267991358,-53.854999,-245.741076,-220.779842,-54.823516
1772267991362,-51.774399,-197.523795,-182.359329,-38.315233
1772267991366,-29.875850,78.300294,71.027038,-20.908366
1772267991370,9.248128,259.451586,253.767829,-10.667549
1772267991373,30.969123,164.346385,173.932382,-5.631030
1772267991331,-106.078302,72.647829,20.499986,-108.277716
1772267991334,-108.134706,116.954313,60.622026,-103.201304
1772267991338,-106.753390,102.097727,55.098455,-99.602400
1772267991342,-100.068930,75.137210,42.630796,-93.708751
1772267991346,-87.951337,109.750249,79.420251,-83.113465
1772267991350,-69.183305,143.928499,115.934358,-72.491703
1772267991354,-54.956352,-10.924831,-12.483166,-64.968833
1772267991358,-53.854999,-245.741076,-220.779842,-54.823516
1772267991362,-51.774399,-197.523795,-182.359329,-38.315233
1772267991366,-29.875850,78.300294,71.027038,-20.908366
1772267991370,9.248128,259.451586,253.767829,-10.667549
1772267991373,30.969123,164.346385,173.932382,-5.631030
1772267991377,11.904627,-90.706179,-71.962621,15.044846
1772267991381,25.472087,55.330649,60.870450,35.646471
1772267991385,52.894760,201.274121,208.645752,50.541101
1772267991389,74.142944,206.640543,220.219039,56.089061
1772267991393,75.480035,131.655936,144.488437,60.591042
1772267991397,66.386478,25.102564,43.651837,70.689413
1772267991401,68.762028,-15.015833,20.551443,82.333513
1772267991405,82.542134,48.482799,91.374072,90.312540
1772267991409,94.935637,125.487502,157.447217,94.314019
1772267991413,98.731207,70.673888,102.359837,96.746615
1772267991416,93.356635,-98.815343,-49.346495,99.118077
1772267991420,88.923486,-86.468102,-42.373835,99.607272
1772267991424,90.258716,80.233654,97.768622,98.094072
1772267991428,94.322384,92.655315,109.346919,97.541392
1772267991432,98.065960,39.027635,68.787931,97.651859
1772267991436,98.184287,124.237373,139.942673,95.856370
1772267991440,94.540783,230.345090,220.638188,92.506444
1772267991444,83.279224,99.277731,97.294222,90.898334
1772267991448,68.317125,-184.777581,-146.041002,91.843761
1772267991452,65.561160,-204.480166,-143.978001,89.775040
1772267991456,77.917407,62.939940,101.264367,81.792805
1772267991459,89.534744,155.921558,174.423919,73.626015
1772267991463,77.979073,-126.245432,-97.018259,71.067495
1772267991467,49.552606,-387.667832,-347.346993,74.424979
1772267991377,11.904627,-90.706179,-71.962621,15.044846
1772267991381,25.472087,55.330649,60.870450,35.646471
1772267991385,52.894760,201.274121,208.645752,50.541101
1772267991389,74.142944,206.640543,220.219039,56.089061
1772267991393,75.480035,131.655936,144.488437,60.591042
1772267991397,66.386478,25.102564,43.651837,70.689413
1772267991401,68.762028,-15.015833,20.551443,82.333513
1772267991405,82.542134,48.482799,91.374072,90.312540
1772267991409,94.935637,125.487502,157.447217,94.314019
1772267991413,98.731207,70.673888,102.359837,96.746615
1772267991416,93.356635,-98.815343,-49.346495,99.118077
1772267991420,88.923486,-86.468102,-42.373835,99.607272
1772267991424,90.258716,80.233654,97.768622,98.094072
1772267991428,94.322384,92.655315,109.346919,97.541392
1772267991432,98.065960,39.027635,68.787931,97.651859
1772267991436,98.184287,124.237373,139.942673,95.856370
1772267991440,94.540783,230.345090,220.638188,92.506444
1772267991444,83.279224,99.277731,97.294222,90.898334
1772267991448,68.317125,-184.777581,-146.041002,91.843761
1772267991452,65.561160,-204.480166,-143.978001,89.775040
1772267991456,77.917407,62.939940,101.264367,81.792805
1772267991459,89.534744,155.921558,174.423919,73.626015
1772267991463,77.979073,-126.245432,-97.018259,71.067495
1772267991467,49.552606,-387.667832,-347.346993,74.424979
1772267991377,11.904627,-90.706179,-71.962621,15.044846
1772267991381,25.472087,55.330649,60.870450,35.646471
1772267991385,52.894760,201.274121,208.645752,50.541101
1772267991389,74.142944,206.640543,220.219039,56.089061
1772267991393,75.480035,131.655936,144.488437,60.591042
1772267991397,66.386478,25.102564,43.651837,70.689413
1772267991401,68.762028,-15.015833,20.551443,82.333513
1772267991405,82.542134,48.482799,91.374072,90.312540
1772267991409,94.935637,125.487502,157.447217,94.314019
1772267991413,98.731207,70.673888,102.359837,96.746615
1772267991416,93.356635,-98.815343,-49.346495,99.118077
1772267991420,88.923486,-86.468102,-42.373835,99.607272
1772267991424,90.258716,80.233654,97.768622,98.094072
1772267991428,94.322384,92.655315,109.346919,97.541392
1772267991432,98.065960,39.027635,68.787931,97.651859
1772267991436,98.184287,124.237373,139.942673,95.856370
1772267991440,94.540783,230.345090,220.638188,92.506444
1772267991444,83.279224,99.277731,97.294222,90.898334
1772267991448,68.317125,-184.777581,-146.041002,91.843761
1772267991452,65.561160,-204.480166,-143.978001,89.775040
1772267991456,77.917407,62.939940,101.264367,81.792805
1772267991459,89.534744,155.921558,174.423919,73.626015
1772267991463,77.979073,-126.245432,-97.018259,71.067495
1772267991467,49.552606,-387.667832,-347.346993,74.424979
1772267991471,62.283952,63.943021,75.056384,73.406587
1772267991475,70.429397,243.820612,233.262992,65.383687
1772267991479,64.725733,174.226683,158.283705,57.317457
1772267991483,48.508678,28.560599,17.121433,56.176734
1772267991487,35.168953,-56.977275,-51.991518,59.291657
1772267991491,35.911028,0.620263,21.046952,58.553558
1772267991495,43.958301,64.356745,86.845370,53.398080
1772267991498,45.321738,17.775905,33.159371,46.854525
1772267991502,39.093410,-69.801165,-65.209186,40.516394
1772267991506,33.772240,-159.787566,-174.588938,35.352228
1772267991510,35.838526,-106.785899,-141.238971,30.980185
1772267991514,39.581334,33.137845,6.341842,30.397540
1772267991518,38.173404,30.633748,31.468747,32.799789
1772267991522,33.496194,18.308842,26.029199,30.472434
1772267991526,27.392158,109.787519,97.870145,24.295636
1772267991530,21.277555,150.825064,129.358520,22.331215
1772267991534,15.182811,28.968024,27.100850,27.576960
1772267991538,11.190068,-106.246524,-85.007407,34.274093
1772267991541,13.289705,-35.489811,-15.272266,30.132148
1772267991545,15.893951,68.383745,75.428563,13.360584
1772267991549,10.977303,-49.894403,-40.877013,0.578443
1772267991553,-1.482643,-283.458957,-262.185199,3.845662
1772267991557,-2.412278,-281.207414,-266.018853,18.773970
1772267991561,27.208784,116.795139,103.202360,31.510199
1772267991565,32.198426,-17.267001,-32.283858,25.394593
1772267991569,18.165457,-86.443973,-105.868588,16.902175
1772267991573,3.271936,22.504434,-17.027382,9.906052
1772267991577,-2.540814,155.610617,113.025920,12.545712
1772267991581,-4.976660,143.842241,113.228712,11.540934
1772267991584,-10.908796,20.167961,1.922027,7.091719
1772267991588,-15.360632,-101.067957,-103.955114,11.680565
1772267991592,-10.556813,-103.079754,-84.885145,22.793262
1772267991596,-2.448390,-49.385631,-12.613044,23.568320
1772267991600,-1.551222,-27.483912,4.552700,9.322417
1772267991604,-18.484234,-124.226855,-115.992711,-2.148501
1772267991608,-44.437058,-289.493657,-290.474897,3.994654
1772267991565,32.198426,-17.267001,-32.283858,25.394593
1772267991569,18.165457,-86.443973,-105.868588,16.902175
1772267991573,3.271936,22.504434,-17.027382,9.906052
1772267991577,-2.540814,155.610617,113.025920,12.545712
1772267991581,-4.976660,143.842241,113.228712,11.540934
1772267991584,-10.908796,20.167961,1.922027,7.091719
1772267991588,-15.360632,-101.067957,-103.955114,11.680565
1772267991592,-10.556813,-103.079754,-84.885145,22.793262
1772267991596,-2.448390,-49.385631,-12.613044,23.568320
1772267991600,-1.551222,-27.483912,4.552700,9.322417
1772267991604,-18.484234,-124.226855,-115.992711,-2.148501
1772267991608,-44.437058,-289.493657,-290.474897,3.994654
1772267991612,-24.029535,3.262594,-5.831988,4.841699
1772267991616,-25.106755,51.653199,31.706926,2.896628
1772267991620,-30.408601,157.409333,116.465223,-0.321269
1772267991623,-37.236003,131.312401,94.092916,-5.678084
1772267991627,-33.764541,1.600188,-11.039531,-8.126728
1772267991631,-17.791634,-4.120984,-4.925827,-8.563256
1772267991635,-9.358256,9.235628,6.338366,-12.608250
1772267991639,-19.514522,-164.002466,-155.794929,-16.281826
1772267991643,-34.787215,-333.097426,-304.531342,-13.569683
1772267991647,-32.760308,-199.403781,-174.080382,-8.663195
1772267991651,-8.163904,175.412333,171.104991,-9.456094
1772267991655,7.311136,322.771230,290.017824,-16.128126
1772267991612,-24.029535,3.262594,-5.831988,4.841699
1772267991616,-25.106755,51.653199,31.706926,2.896628
1772267991620,-30.408601,157.409333,116.465223,-0.321269
1772267991623,-37.236003,131.312401,94.092916,-5.678084
1772267991627,-33.764541,1.600188,-11.039531,-8.126728
1772267991631,-17.791634,-4.120984,-4.925827,-8.563256
1772267991635,-9.358256,9.235628,6.338366,-12.608250
1772267991639,-19.514522,-164.002466,-155.794929,-16.281826
1772267991643,-34.787215,-333.097426,-304.531342,-13.569683
1772267991647,-32.760308,-199.403781,-174.080382,-8.663195
1772267991651,-8.163904,175.412333,171.104991,-9.456094
1772267991655,7.311136,322.771230,290.017824,-16.128126
1772267991659,-17.585839,38.180191,16.052252,-11.145029
1772267991663,-20.315913,33.593747,9.132119,-13.663952
1772267991666,-19.831726,86.514753,62.598540,-14.585941
1772267991670,-15.038491,75.027777,60.060219,-16.652176
1772267991674,-17.029898,5.548856,-7.876412,-19.672753
1772267991678,-23.837126,-31.950974,-52.033022,-21.227026
1772267991682,-17.976708,9.350133,-9.330196,-21.857624
1772267991686,-1.037445,37.063430,14.443616,-23.600744
1772267991690,5.018028,-2.455041,-38.419871,-27.060174
1772267991694,-12.728699,-127.154311,-158.420221,-26.553781
1772267991698,-32.783426,-221.504733,-232.355623,-18.264212
1772267991702,-22.648769,20.147706,15.152853,-12.436907
1772267991705,-12.848089,-26.234372,-23.775843,-20.381877
1772267991709,-11.967999,61.411703,56.591016,-23.249771
1772267991713,-12.395810,109.136312,99.240248,-24.278492
1772267991717,-13.293669,87.110983,82.110891,-24.471564
1772267991721,-12.113961,72.339406,75.032937,-26.729664
1772267991725,-14.641433,-49.562809,-27.049454,-27.068380
1772267991729,-23.031906,-298.229627,-238.592779,-22.933938
1772267991733,-28.690819,-326.528843,-252.716134,-20.963776
1772267991737,-21.941927,-11.322575,26.739198,-25.137901
1772267991741,-6.137231,234.637029,239.435796,-31.488990
1772267991745,-7.065872,21.324220,38.169970,-34.502479
1772267991748,-32.779421,-314.011204,-281.960366,-31.076788
1772267991752,-20.235686,110.940150,101.514009,-31.509528
1772267991756,-24.687428,73.941513,67.186940,-31.676349
1772267991760,-27.389177,-46.849265,-30.362585,-31.325754
1772267991764,-31.463559,-97.407288,-70.248547,-31.224585
1772267991768,-33.323820,26.745077,33.212858,-32.785654
1772267991772,-23.697090,170.601435,161.865386,-34.508713
1772267991776,-11.980038,32.183191,50.826882,-32.903573
1772267991780,-12.324558,-286.732911,-224.983122,-26.799230
1772267991784,-22.112087,-374.584827,-308.364894,-19.169836
1772267991788,-20.073979,-116.645548,-82.189024,-14.928210
1772267991791,5.208856,210.114595,224.430778,-17.803251
1772267991795,24.577384,222.992673,243.156524,-26.035459
1772267991752,-20.235686,110.940150,101.514009,-31.509528
1772267991756,-24.687428,73.941513,67.186940,-31.676349
1772267991760,-27.389177,-46.849265,-30.362585,-31.325754
1772267991764,-31.463559,-97.407288,-70.248547,-31.224585
1772267991768,-33.323820,26.745077,33.212858,-32.785654
1772267991772,-23.697090,170.601435,161.865386,-34.508713
1772267991776,-11.980038,32.183191,50.826882,-32.903573
1772267991780,-12.324558,-286.732911,-224.983122,-26.799230
1772267991784,-22.112087,-374.584827,-308.364894,-19.169836
1772267991788,-20.073979,-116.645548,-82.189024,-14.928210
1772267991791,5.208856,210.114595,224.430778,-17.803251
1772267991795,24.577384,222.992673,243.156524,-26.035459
1772267991799,-6.149034,-155.050101,-124.497776,-25.707062
1772267991803,-16.052929,-72.256269,-58.326132,-26.748046
1772267991807,-11.384282,49.582562,57.846871,-28.491846
1772267991811,1.304915,177.728548,173.703281,-31.016300
1772267991815,4.685613,151.345920,142.330251,-30.596828
1772267991819,-4.079137,-47.513741,-39.286116,-26.009435
1772267991823,-10.321471,-167.904274,-137.853162,-20.366569
1772267991827,-3.049998,-103.108545,-70.881829,-16.094784
1772267991830,13.535394,14.467439,37.111029,-14.009195
1772267991834,22.046250,-54.462951,-21.176242,-14.826097
1772267991838,19.533947,-212.341112,-165.960198,-18.577828
1772267991842,19.054352,-107.868819,-90.947095,-18.928405
1772267991846,19.467458,123.411230,97.013465,-14.303051
1772267991850,14.744227,202.553057,166.090234,-12.675462
1772267991854,6.597730,174.038186,145.462273,-13.086399
1772267991858,-0.490792,181.750602,148.639976,-11.012945
1772267991862,-2.106013,240.499091,196.729432,-7.879116
1772267991866,-3.665466,146.885216,111.148352,-5.905310
1772267991870,-10.036948,-96.379710,-103.583836,-5.759836
1772267991873,-14.504050,-182.878784,-168.295492,-3.387976
1772267991877,-7.724921,-17.465276,-4.022972,0.479260
1772267991881,4.405284,142.120306,148.416828,-4.143271
1772267991885,-0.697654,23.023125,25.349444,-16.095029
1772267991889,-22.261405,-246.858105,-245.796722,-19.863375
1772267991799,-6.149034,-155.050101,-124.497776,-25.707062
1772267991803,-16.052929,-72.256269,-58.326132,-26.748046
1772267991807,-11.384282,49.582562,57.846871,-28.491846
1772267991811,1.304915,177.728548,173.703281,-31.016300
1772267991815,4.685613,151.345920,142.330251,-30.596828
1772267991819,-4.079137,-47.513741,-39.286116,-26.009435
1772267991823,-10.321471,-167.904274,-137.853162,-20.366569
1772267991827,-3.049998,-103.108545,-70.881829,-16.094784
1772267991830,13.535394,14.467439,37.111029,-14.009195
1772267991834,22.046250,-54.462951,-21.176242,-14.826097
1772267991838,19.533947,-212.341112,-165.960198,-18.577828
1772267991842,19.054352,-107.868819,-90.947095,-18.928405
1772267991846,19.467458,123.411230,97.013465,-14.303051
1772267991850,14.744227,202.553057,166.090234,-12.675462
1772267991854,6.597730,174.038186,145.462273,-13.086399
1772267991858,-0.490792,181.750602,148.639976,-11.012945
1772267991862,-2.106013,240.499091,196.729432,-7.879116
1772267991866,-3.665466,146.885216,111.148352,-5.905310
1772267991870,-10.036948,-96.379710,-103.583836,-5.759836
1772267991873,-14.504050,-182.878784,-168.295492,-3.387976
1772267991877,-7.724921,-17.465276,-4.022972,0.479260
1772267991881,4.405284,142.120306,148.416828,-4.143271
1772267991885,-0.697654,23.023125,25.349444,-16.095029
1772267991889,-22.261405,-246.858105,-245.796722,-19.863375
1772267991799,-6.149034,-155.050101,-124.497776,-25.707062
1772267991803,-16.052929,-72.256269,-58.326132,-26.748046
1772267991807,-11.384282,49.582562,57.846871,-28.491846
1772267991811,1.304915,177.728548,173.703281,-31.016300
1772267991815,4.685613,151.345920,142.330251,-30.596828
1772267991819,-4.079137,-47.513741,-39.286116,-26.009435
1772267991823,-10.321471,-167.904274,-137.853162,-20.366569
1772267991827,-3.049998,-103.108545,-70.881829,-16.094784
1772267991830,13.535394,14.467439,37.111029,-14.009195
1772267991834,22.046250,-54.462951,-21.176242,-14.826097
1772267991838,19.533947,-212.341112,-165.960198,-18.577828
1772267991842,19.054352,-107.868819,-90.947095,-18.928405
1772267991846,19.467458,123.411230,97.013465,-14.303051
1772267991850,14.744227,202.553057,166.090234,-12.675462
1772267991854,6.597730,174.038186,145.462273,-13.086399
1772267991858,-0.490792,181.750602,148.639976,-11.012945
1772267991862,-2.106013,240.499091,196.729432,-7.879116
1772267991866,-3.665466,146.885216,111.148352,-5.905310
1772267991870,-10.036948,-96.379710,-103.583836,-5.759836
1772267991873,-14.504050,-182.878784,-168.295492,-3.387976
1772267991877,-7.724921,-17.465276,-4.022972,0.479260
1772267991881,4.405284,142.120306,148.416828,-4.143271
1772267991885,-0.697654,23.023125,25.349444,-16.095029
1772267991889,-22.261405,-246.858105,-245.796722,-19.863375
1772267991940,-9.093586,109.579924,93.946325,-10.452646
1772267991944,-10.189141,65.175935,63.453875,-8.698981
1772267991948,-10.442535,123.833403,114.770394,-8.562594
1772267991952,-6.570559,178.093255,160.724800,-8.960590
1772267991955,-6.298896,27.990294,22.457931,-7.075419
1772267991959,-9.113279,-163.990968,-151.821282,-2.532217
1772267991963,-6.216403,-79.739373,-66.903892,-0.095379
1772267991967,6.379382,124.823286,133.857876,-2.611904
1772267991971,17.064786,59.416328,87.626732,-5.959934
1772267991975,4.118272,-281.593363,-228.069212,-2.177186
1772267991979,-20.541633,-429.102032,-379.687011,11.033488
1772267991983,-19.430935,-71.953764,-53.967381,23.746258
1772267991940,-9.093586,109.579924,93.946325,-10.452646
1772267991944,-10.189141,65.175935,63.453875,-8.698981
1772267991948,-10.442535,123.833403,114.770394,-8.562594
1772267991952,-6.570559,178.093255,160.724800,-8.960590
1772267991955,-6.298896,27.990294,22.457931,-7.075419
1772267991959,-9.113279,-163.990968,-151.821282,-2.532217
1772267991963,-6.216403,-79.739373,-66.903892,-0.095379
1772267991967,6.379382,124.823286,133.857876,-2.611904
1772267991971,17.064786,59.416328,87.626732,-5.959934
1772267991975,4.118272,-281.593363,-228.069212,-2.177186
1772267991979,-20.541633,-429.102032,-379.687011,11.033488
1772267991983,-19.430935,-71.953764,-53.967381,23.746258
1772267991987,0.047877,25.566914,33.448920,19.015154
1772267991991,1.600309,97.634697,93.335695,17.783712
1772267991995,-0.995958,192.708009,169.031230,13.076907
1772267991998,-1.551478,145.401892,129.867766,8.271734
1772267992002,4.583924,61.617567,69.234322,1.362914
1772267992006,6.539983,-6.956917,8.358077,-6.227333
1772267992010,-2.903497,-107.074665,-90.855377,-8.846355
1772267992014,-13.531732,-209.972305,-178.065199,-5.870629
1772267992018,-9.182698,-158.078965,-114.671539,-4.689730
1772267992022,8.178272,88.976438,112.527785,-12.373561
1772267992026,11.045863,136.763336,133.883167,-22.628060
1772267992030,-13.101340,-115.919918,-124.388447,-21.933823
1772267991987,0.047877,25.566914,33.448920,19.015154
1772267991991,1.600309,97.634697,93.335695,17.783712
1772267991995,-0.995958,192.708009,169.031230,13.076907
1772267991998,-1.551478,145.401892,129.867766,8.271734
1772267992002,4.583924,61.617567,69.234322,1.362914
1772267992006,6.539983,-6.956917,8.358077,-6.227333
1772267992010,-2.903497,-107.074665,-90.855377,-8.846355
1772267992014,-13.531732,-209.972305,-178.065199,-5.870629
1772267992018,-9.182698,-158.078965,-114.671539,-4.689730
1772267992022,8.178272,88.976438,112.527785,-12.373561
1772267992026,11.045863,136.763336,133.883167,-22.628060
1772267992030,-13.101340,-115.919918,-124.388447,-21.933823
1772267991987,0.047877,25.566914,33.448920,19.015154
1772267991991,1.600309,97.634697,93.335695,17.783712
1772267991995,-0.995958,192.708009,169.031230,13.076907
1772267991998,-1.551478,145.401892,129.867766,8.271734
1772267992002,4.583924,61.617567,69.234322,1.362914
1772267992006,6.539983,-6.956917,8.358077,-6.227333
1772267992010,-2.903497,-107.074665,-90.855377,-8.846355
1772267992014,-13.531732,-209.972305,-178.065199,-5.870629
1772267992018,-9.182698,-158.078965,-114.671539,-4.689730
1772267992022,8.178272,88.976438,112.527785,-12.373561
1772267992026,11.045863,136.763336,133.883167,-22.628060
1772267992030,-13.101340,-115.919918,-124.388447,-21.933823
1772267991987,0.047877,25.566914,33.448920,19.015154
1772267991991,1.600309,97.634697,93.335695,17.783712
