timestamp,TP9_uV,AF7_uV,AF8_uV,TP10_uV
1772267902372,-5.693405,-67.913171,-56.065013,0.469799
1772267902376,-3.160669,-37.724280,-32.977959,1.293102
1772267902380,-0.696451,151.751263,123.690957,4.521843
1772267902384,1.371531,203.782727,167.091715,4.040490
1772267902388,-10.415255,69.530877,55.330353,4.755789
1772267902392,-24.728138,-8.390451,-2.908688,10.147603
1772267902396,-23.368820,26.665507,34.119973,13.758814
1772267902400,-0.102156,19.469823,22.789019,6.317490
1772267902404,24.163037,-54.116952,-52.685739,-9.187557
1772267902407,9.072884,-112.130542,-102.977482,-11.522264
1772267902411,-33.318500,-85.445290,-60.988521,5.125479
1772267902415,-46.806058,92.825481,103.986968,17.455849
1772267902279,38.903336,137.233788,95.556992,5.945766
1772267902282,44.407716,50.806025,19.220592,-1.270760
1772267902286,23.466867,-37.449883,-48.876439,7.057048
1772267902290,2.775901,-29.709006,-34.980357,20.669212
1772267902294,5.258306,40.999524,22.156262,19.678244
1772267902298,17.412711,38.566037,10.699635,5.422685
1772267902302,21.789808,-55.428848,-71.197927,-5.159093
1772267902306,10.687739,-166.523388,-158.996963,-0.419213
1772267902310,-0.361141,-231.654122,-204.803336,8.871330
1772267902314,3.668239,-180.794371,-157.389067,8.475890
1772267902318,11.480216,-37.447863,-43.264252,2.736161
1772267902321,15.349783,67.490311,37.496566,-1.489814
1772267902325,11.750719,76.868431,45.268085,-1.229964
1772267902329,4.099284,114.774613,79.999533,1.324212
1772267902333,-0.135141,208.975949,162.835510,1.494243
1772267902337,-3.369510,175.677105,140.487718,2.189613
1772267902341,2.511267,35.838732,30.054590,2.948482
1772267902345,18.509559,-29.330638,-23.672839,-0.098758
1772267902349,29.623179,2.833415,-2.664908,-6.336387
1772267902353,22.621109,18.618663,9.425669,-9.801971
1772267902357,-7.330130,-73.964998,-60.769769,-1.071945
1772267902361,-27.631483,-104.588883,-77.735380,12.665207
1772267902364,-7.171528,58.438446,54.989846,11.021477
1772267902368,30.447588,184.622830,142.096090,-9.732730
1772267902372,-5.693405,-67.913171,-56.065013,0.469799
1772267902376,-3.160669,-37.724280,-32.977959,1.293102
1772267902380,-0.696451,151.751263,123.690957,4.521843
1772267902384,1.371531,203.782727,167.091715,4.040490
1772267902388,-10.415255,69.530877,55.330353,4.755789
1772267902392,-24.728138,-8.390451,-2.908688,10.147603
1772267902396,-23.368820,26.665507,34.119973,13.758814
1772267902400,-0.102156,19.469823,22.789019,6.317490
1772267902404,24.163037,-54.116952,-52.685739,-9.187557
1772267902407,9.072884,-112.130542,-102.977482,-11.522264
1772267902411,-33.318500,-85.445290,-60.988521,5.125479
1772267902415,-46.806058,92.825481,103.986968,17.455849
1772267902419,-8.391103,129.056719,113.103316,-5.065967
1772267902423,-5.820614,184.667893,159.068158,-6.605222
1772267902427,-7.963459,242.738539,207.589993,-7.843388
1772267902431,-6.876080,204.113336,176.405803,-4.781175
1772267902435,4.630532,134.277910,116.605082,0.659961
1772267902439,13.039027,50.943927,43.790023,5.203163
1772267902443,7.604202,-76.190958,-55.482839,11.833464
1772267902446,-11.776963,-199.394518,-143.408019,22.326896
1772267902450,-14.503618,-114.278053,-69.705347,21.597276
1772267902454,15.100032,101.719148,91.916674,0.085685
1772267902458,38.237660,87.492968,59.710940,-20.727919
1772267902462,18.974220,-59.578999,-59.933241,-15.792742
1772267902419,-8.391103,129.056719,113.103316,-5.065967
1772267902423,-5.820614,184.667893,159.068158,-6.605222
1772267902427,-7.963459,242.738539,207.589993,-7.843388
1772267902431,-6.876080,204.113336,176.405803,-4.781175
1772267902435,4.630532,134.277910,116.605082,0.659961
1772267902439,13.039027,50.943927,43.790023,5.203163
1772267902443,7.604202,-76.190958,-55.482839,11.833464
1772267902446,-11.776963,-199.394518,-143.408019,22.326896
1772267902450,-14.503618,-114.278053,-69.705347,21.597276
1772267902454,15.100032,101.719148,91.916674,0.085685
1772267902458,38.237660,87.492968,59.710940,-20.727919
1772267902462,18.974220,-59.578999,-59.933241,-15.792742
1772267902513,6.639260,82.286433,68.548527,-2.938395
1772267902517,9.471577,27.085561,22.124096,-5.360515
1772267902521,15.617264,-2.070291,-2.156750,-9.245890
1772267902525,20.629161,52.888866,38.162959,-15.390530
1772267902529,11.569988,88.793566,63.146396,-13.691262
1772267902532,-1.910694,50.197329,37.331648,-0.998632
1772267902536,-2.886806,-33.049560,-22.481388,11.575640
1772267902540,21.663970,-55.787416,-45.198818,7.068846
1772267902544,51.250365,18.049377,1.584563,-11.653305
1772267902548,41.865612,-6.747926,-23.479982,-17.156540
1772267902552,-0.245110,-114.572576,-95.723909,2.008375
1772267902556,-26.009148,-52.860616,-28.271731,19.744579
1772267902560,7.097114,70.736053,49.286928,-8.005934
1772267902564,5.910496,-42.141180,-41.848087,-11.156892
1772267902568,2.683860,-292.764362,-242.221543,-5.392217
1772267902571,1.753699,-319.528427,-258.944887,2.553819
1772267902575,9.145736,-62.361879,-50.611358,3.055494
1772267902579,13.025389,92.909716,69.603509,-2.824959
1772267902583,1.721305,-9.255327,-11.779577,-3.525784
1772267902587,-23.662886,-138.902416,-106.607170,7.890824
1772267902591,-30.049156,-63.081845,-38.890548,13.896638
1772267902595,-4.478792,44.370216,37.440941,-1.922579
1772267902599,16.528246,-21.252344,-35.657792,-25.625667
1772267902603,-2.412675,-92.757489,-92.835549,-26.724788
1772267902607,-37.305990,88.473004,83.388301,4.501935
1772267902611,-20.909971,219.401290,190.424288,8.061993
1772267902614,6.168652,219.574135,177.263380,-2.473403
1772267902618,7.323096,146.835148,106.227682,-8.695575
1772267902622,-12.400704,81.599267,62.025198,-0.378092
1772267902626,-28.631966,26.829869,32.863317,11.412539
1772267902630,-25.781372,-34.263240,-18.346761,10.312879
1772267902634,-9.427790,-62.075817,-51.883215,-3.406066
1772267902638,-3.966460,-137.557650,-119.567868,-14.547584
1772267902642,-10.441526,-277.902652,-232.817830,-16.882423
1772267902646,-17.756501,-265.797786,-220.043455,-13.903756
1772267902650,-18.485340,-43.748666,-36.708036,-10.398085
1772267902653,-10.580639,132.064503,109.673525,-9.408500
1772267902657,-3.677076,145.584974,118.605907,-10.706673
1772267902661,4.666035,155.128596,121.238323,-14.205880
1772267902665,11.768346,164.002698,127.568934,-15.361061
1772267902669,6.020969,58.335132,45.555436,-9.316896
1772267902673,-8.262421,-63.566031,-42.996915,1.223679
1772267902677,-19.053419,-81.011617,-49.455531,8.087728
1772267902681,-6.514453,-18.405153,-5.872523,1.315332
1772267902685,18.272779,-58.566773,-53.546160,-13.491554
1772267902689,12.033919,-247.054574,-211.928409,-14.258114
1772267902693,-25.367027,-270.793767,-214.577728,9.311297
1772267902696,-47.953479,-41.166669,-6.876850,37.477624
1772267902607,-37.305990,88.473004,83.388301,4.501935
1772267902611,-20.909971,219.401290,190.424288,8.061993
1772267902614,6.168652,219.574135,177.263380,-2.473403
1772267902618,7.323096,146.835148,106.227682,-8.695575
1772267902622,-12.400704,81.599267,62.025198,-0.378092
1772267902626,-28.631966,26.829869,32.863317,11.412539
1772267902630,-25.781372,-34.263240,-18.346761,10.312879
1772267902634,-9.427790,-62.075817,-51.883215,-3.406066
1772267902638,-3.966460,-137.557650,-119.567868,-14.547584
1772267902642,-10.441526,-277.902652,-232.817830,-16.882423
1772267902646,-17.756501,-265.797786,-220.043455,-13.903756
1772267902650,-18.485340,-43.748666,-36.708036,-10.398085
1772267902653,-10.580639,132.064503,109.673525,-9.408500
1772267902657,-3.677076,145.584974,118.605907,-10.706673
1772267902661,4.666035,155.128596,121.238323,-14.205880
1772267902665,11.768346,164.002698,127.568934,-15.361061
1772267902669,6.020969,58.335132,45.555436,-9.316896
1772267902673,-8.262421,-63.566031,-42.996915,1.223679
1772267902677,-19.053419,-81.011617,-49.455531,8.087728
1772267902681,-6.514453,-18.405153,-5.872523,1.315332
1772267902685,18.272779,-58.566773,-53.546160,-13.491554
1772267902689,12.033919,-247.054574,-211.928409,-14.258114
1772267902693,-25.367027,-270.793767,-214.577728,9.311297
1772267902696,-47.953479,-41.166669,-6.876850,37.477624
1772267902700,-5.987456,64.790326,66.333136,21.522650
1772267902704,-6.840900,108.322480,104.778771,18.521689
1772267902708,-17.583344,167.654903,147.965913,8.139267
1772267902712,-24.585537,149.450179,129.218379,1.529140
1772267902716,-20.810488,41.772964,38.473590,-2.503529
1772267902720,-16.331786,-74.974734,-64.732119,-7.730505
1772267902724,-22.250120,-135.316808,-118.693823,-5.968334
1772267902728,-41.057869,-204.537944,-169.560761,9.266595
1772267902732,-42.440569,-282.607480,-225.072980,20.985527
1772267902736,-11.943248,-254.047084,-211.505333,9.335192
1772267902739,19.790672,-162.521244,-162.602020,-14.167798
1772267902743,14.830754,-140.057919,-151.373436,-16.145274
1772267902700,-5.987456,64.790326,66.333136,21.522650
1772267902704,-6.840900,108.322480,104.778771,18.521689
1772267902708,-17.583344,167.654903,147.965913,8.139267
1772267902712,-24.585537,149.450179,129.218379,1.529140
1772267902716,-20.810488,41.772964,38.473590,-2.503529
1772267902720,-16.331786,-74.974734,-64.732119,-7.730505
1772267902724,-22.250120,-135.316808,-118.693823,-5.968334
1772267902728,-41.057869,-204.537944,-169.560761,9.266595
1772267902732,-42.440569,-282.607480,-225.072980,20.985527
1772267902736,-11.943248,-254.047084,-211.505333,9.335192
1772267902739,19.790672,-162.521244,-162.602020,-14.167798
1772267902743,14.830754,-140.057919,-151.373436,-16.145274
1772267902747,1.434961,-86.848305,-92.768104,5.984968
1772267902751,2.413177,-11.428878,-27.929003,11.007043
1772267902755,5.311572,83.018850,45.237550,8.157696
1772267902759,5.797545,-1.344990,-31.528788,0.821881
1772267902763,8.852166,-133.684934,-142.137145,-5.048186
1772267902767,15.770349,-140.421186,-146.588315,-7.903390
1772267902771,28.829683,-79.144100,-96.809304,-13.598128
1772267902775,33.491189,-127.925745,-136.218127,-20.112513
1772267902778,10.560101,-294.872375,-267.934237,-13.702344
1772267902782,-15.323953,-297.433596,-258.140721,3.432203
1772267902786,-10.321015,-76.897437,-73.142319,10.020034
1772267902790,28.151846,158.589088,102.860343,-7.471023
1772267902747,1.434961,-86.848305,-92.768104,5.984968
1772267902751,2.413177,-11.428878,-27.929003,11.007043
1772267902755,5.311572,83.018850,45.237550,8.157696
1772267902759,5.797545,-1.344990,-31.528788,0.821881
1772267902763,8.852166,-133.684934,-142.137145,-5.048186
1772267902767,15.770349,-140.421186,-146.588315,-7.903390
1772267902771,28.829683,-79.144100,-96.809304,-13.598128
1772267902775,33.491189,-127.925745,-136.218127,-20.112513
1772267902778,10.560101,-294.872375,-267.934237,-13.702344
1772267902782,-15.323953,-297.433596,-258.140721,3.432203
1772267902786,-10.321015,-76.897437,-73.142319,10.020034
1772267902790,28.151846,158.589088,102.860343,-7.471023
1772267902794,7.444099,-16.857050,-43.745637,-4.768807
1772267902798,6.359893,39.716073,6.082358,-4.675812
1772267902802,9.619393,117.045240,78.399503,-0.817304
1772267902806,15.493302,89.124215,57.001735,2.819065
1772267902810,10.920211,-36.486813,-51.925440,4.440932
1772267902814,-3.913940,-129.552040,-125.172922,7.189596
1772267902818,-16.443937,-158.359572,-137.084892,12.452268
1772267902821,0.268550,-135.063304,-114.165625,11.880645
1772267902825,33.265311,-62.666519,-66.469542,2.283734
1772267902829,35.274266,-79.541406,-91.310652,-1.515697
1772267902833,-1.107675,-210.143545,-185.548477,15.677496
1772267902837,-36.300491,-171.441806,-130.729714,40.736881
1772267902794,7.444099,-16.857050,-43.745637,-4.768807
1772267902798,6.359893,39.716073,6.082358,-4.675812
1772267902802,9.619393,117.045240,78.399503,-0.817304
1772267902806,15.493302,89.124215,57.001735,2.819065
1772267902810,10.920211,-36.486813,-51.925440,4.440932
1772267902814,-3.913940,-129.552040,-125.172922,7.189596
1772267902818,-16.443937,-158.359572,-137.084892,12.452268
1772267902821,0.268550,-135.063304,-114.165625,11.880645
1772267902825,33.265311,-62.666519,-66.469542,2.283734
1772267902829,35.274266,-79.541406,-91.310652,-1.515697
1772267902833,-1.107675,-210.143545,-185.548477,15.677496
1772267902837,-36.300491,-171.441806,-130.729714,40.736881
1772267902841,8.485032,18.359475,9.356558,22.126746
1772267902845,10.973828,99.497683,76.881460,19.320245
1772267902849,6.122916,105.824520,88.325564,19.994620
1772267902853,5.593598,49.169325,46.383786,24.001848
1772267902857,14.713498,29.630965,30.335298,26.690194
1772267902860,24.282069,13.212005,17.078572,25.606106
1772267902864,18.052898,-103.332306,-73.203315,23.844258
1772267902868,-9.968580,-241.779723,-182.023832,26.936273
1772267902872,-24.565403,-107.575393,-71.129372,26.651893
1772267902876,-3.619094,180.272908,154.569966,10.571689
1772267902880,28.692676,247.356046,186.208437,-15.184030
1772267902884,23.121395,96.114311,47.227782,-26.281569
1772267902841,8.485032,18.359475,9.356558,22.126746
1772267902845,10.973828,99.497683,76.881460,19.320245
1772267902849,6.122916,105.824520,88.325564,19.994620
1772267902853,5.593598,49.169325,46.383786,24.001848
1772267902857,14.713498,29.630965,30.335298,26.690194
1772267902860,24.282069,13.212005,17.078572,25.606106
1772267902864,18.052898,-103.332306,-73.203315,23.844258
1772267902868,-9.968580,-241.779723,-182.023832,26.936273
1772267902872,-24.565403,-107.575393,-71.129372,26.651893
1772267902876,-3.619094,180.272908,154.569966,10.571689
1772267902880,28.692676,247.356046,186.208437,-15.184030
1772267902884,23.121395,96.114311,47.227782,-26.281569
1772267902935,-0.853695,-47.657963,-77.423795,10.719286
1772267902939,0.236143,18.903234,-22.869753,9.028430
1772267902943,3.474023,-32.827652,-67.599778,3.850598
1772267902946,8.676695,15.591900,-30.093659,3.027175
1772267902950,7.373071,100.156136,38.796368,9.374537
1772267902954,-5.230026,40.925651,-6.662097,17.849933
1772267902958,-21.716913,-165.555887,-173.542629,21.418653
1772267902962,-8.477533,-230.355273,-226.953747,12.303141
1772267902966,26.163626,-96.582150,-125.714464,-8.004449
1772267902970,30.997449,-112.748354,-154.995058,-25.096964
1772267902974,-10.939199,-274.624531,-289.471594,-24.053978
1772267902978,-57.767564,-268.552935,-270.412857,-11.914455
1772267902935,-0.853695,-47.657963,-77.423795,10.719286
1772267902939,0.236143,18.903234,-22.869753,9.028430
1772267902943,3.474023,-32.827652,-67.599778,3.850598
1772267902946,8.676695,15.591900,-30.093659,3.027175
1772267902950,7.373071,100.156136,38.796368,9.374537
1772267902954,-5.230026,40.925651,-6.662097,17.849933
1772267902958,-21.716913,-165.555887,-173.542629,21.418653
1772267902962,-8.477533,-230.355273,-226.953747,12.303141
1772267902966,26.163626,-96.582150,-125.714464,-8.004449
1772267902970,30.997449,-112.748354,-154.995058,-25.096964
1772267902974,-10.939199,-274.624531,-289.471594,-24.053978
1772267902978,-57.767564,-268.552935,-270.412857,-11.914455
1772267902935,-0.853695,-47.657963,-77.423795,10.719286
1772267902939,0.236143,18.903234,-22.869753,9.028430
1772267902943,3.474023,-32.827652,-67.599778,3.850598
1772267902946,8.676695,15.591900,-30.093659,3.027175
1772267902950,7.373071,100.156136,38.796368,9.374537
1772267902954,-5.230026,40.925651,-6.662097,17.849933
1772267902958,-21.716913,-165.555887,-173.542629,21.418653
1772267902962,-8.477533,-230.355273,-226.953747,12.303141
1772267902966,26.163626,-96.582150,-125.714464,-8.004449
1772267902970,30.997449,-112.748354,-154.995058,-25.096964
1772267902974,-10.939199,-274.624531,-289.471594,-24.053978
1772267902978,-57.767564,-268.552935,-270.412857,-11.914455
1772267902935,-0.853695,-47.657963,-77.423795,10.719286
1772267902939,0.236143,18.903234,-22.869753,9.028430
1772267902943,3.474023,-32.827652,-67.599778,3.850598
1772267902946,8.676695,15.591900,-30.093659,3.027175
1772267902950,7.373071,100.156136,38.796368,9.374537
1772267902954,-5.230026,40.925651,-6.662097,17.849933
1772267902958,-21.716913,-165.555887,-173.542629,21.418653
1772267902962,-8.477533,-230.355273,-226.953747,12.303141
1772267902966,26.163626,-96.582150,-125.714464,-8.004449
1772267902970,30.997449,-112.748354,-154.995058,-25.096964
1772267902974,-10.939199,-274.624531,-289.471594,-24.053978
1772267902978,-57.767564,-268.552935,-270.412857,-11.914455
1772267902935,-0.853695,-47.657963,-77.423795,10.719286
1772267902939,0.236143,18.903234,-22.869753,9.028430
1772267902943,3.474023,-32.827652,-67.599778,3.850598
1772267902946,8.676695,15.591900,-30.093659,3.027175
1772267902950,7.373071,100.156136,38.796368,9.374537
1772267902954,-5.230026,40.925651,-6.662097,17.849933
1772267902958,-21.716913,-165.555887,-173.542629,21.418653
1772267902962,-8.477533,-230.355273,-226.953747,12.303141
1772267902966,26.163626,-96.582150,-125.714464,-8.004449
1772267902970,30.997449,-112.748354,-154.995058,-25.096964
1772267902974,-10.939199,-274.624531,-289.471594,-24.053978
1772267902978,-57.767564,-268.552935,-270.412857,-11.914455
1772267902935,-0.853695,-47.657963,-77.423795,10.719286
1772267902939,0.236143,18.903234,-22.869753,9.028430
1772267902943,3.474023,-32.827652,-67.599778,3.850598
1772267902946,8.676695,15.591900,-30.093659,3.027175
1772267902950,7.373071,100.156136,38.796368,9.374537
1772267902954,-5.230026,40.925651,-6.662097,17.849933
1772267902958,-21.716913,-165.555887,-173.542629,21.418653
1772267902962,-8.477533,-230.355273,-226.953747,12.303141
1772267902966,26.163626,-96.582150,-125.714464,-8.004449
1772267902970,30.997449,-112.748354,-154.995058,-25.096964
1772267902974,-10.939199,-274.624531,-289.471594,-24.053978
1772267902978,-57.767564,-268.552935,-270.412857,-11.914455
1772267902982,-14.124449,-6.603383,-65.867860,-33.009542
1772267902985,-10.554416,33.914852,-33.091320,-30.674763
1772267902989,-10.863250,-5.446057,-65.344666,-25.385674
1772267902993,-8.440422,31.200656,-28.050153,-17.852927
1772267902997,-1.935329,93.101086,30.993504,-15.388322
1772267903001,8.580535,54.781064,0.189968,-20.959626
1772267903005,9.049753,-113.855126,-142.404218,-23.677811
1772267903009,-12.541661,-274.804064,-271.796771,-12.932843
1772267903013,-25.663343,-243.572490,-228.840843,-0.190841
1772267903017,-4.899618,-129.437398,-128.633645,-5.897505
1772267903021,33.889994,-28.902707,-63.599679,-30.142861
1772267903025,37.345865,17.690733,-33.852777,-41.580631
1772267902982,-14.124449,-6.603383,-65.867860,-33.009542
1772267902985,-10.554416,33.914852,-33.091320,-30.674763
1772267902989,-10.863250,-5.446057,-65.344666,-25.385674
1772267902993,-8.440422,31.200656,-28.050153,-17.852927
1772267902997,-1.935329,93.101086,30.993504,-15.388322
1772267903001,8.580535,54.781064,0.189968,-20.959626
1772267903005,9.049753,-113.855126,-142.404218,-23.677811
1772267903009,-12.541661,-274.804064,-271.796771,-12.932843
1772267903013,-25.663343,-243.572490,-228.840843,-0.190841
1772267903017,-4.899618,-129.437398,-128.633645,-5.897505
1772267903021,33.889994,-28.902707,-63.599679,-30.142861
1772267903025,37.345865,17.690733,-33.852777,-41.580631
1772267903028,-21.935619,13.639042,-5.472231,-9.376202
1772267903032,-18.856240,88.784864,75.368234,1.273536
1772267903036,6.473030,235.946186,203.917780,-4.304171
1772267903040,19.756941,316.324989,273.126449,-12.375177
1772267903044,9.765347,262.158496,238.404401,-6.595862
1772267903048,-10.290217,148.906742,157.443560,9.185922
1772267903052,-9.049696,91.103502,114.796632,17.056778
1772267903056,10.011439,97.025921,115.701933,9.976713
1772267903060,20.276782,50.857677,73.618908,-0.242734
1772267903064,13.634755,12.349804,45.138488,-3.793570
1772267903068,-4.080354,110.723644,130.832444,-1.497941
1772267903071,-8.193810,240.804669,241.574747,1.186469
1772267903075,2.116066,265.831253,263.338403,0.432049
1772267903079,9.829115,271.794461,262.791770,-2.149733
1772267903083,17.549893,316.123684,290.478332,-4.596871
1772267903087,19.082736,224.584953,206.001771,-7.774654
1772267903091,12.406923,23.690736,38.101985,-9.995180
1772267903095,-2.437476,-64.875369,-26.188151,-5.984258
1772267903099,-22.289442,-8.126030,28.456001,-0.385500
1772267903103,-19.244715,142.509260,148.417146,-6.166327
1772267903107,4.013163,216.069772,191.005244,-25.146096
1772267903110,9.652059,67.906283,51.557226,-43.424973
1772267903114,-25.090576,-147.720375,-120.651172,-39.219613
1772267903118,-72.752492,-199.193640,-143.645796,-14.644010
1772267903122,-34.366084,-38.795312,-21.453040,-21.719366
1772267903126,-15.261458,-25.593638,-23.868809,-31.542136
1772267903130,-16.711117,-15.614485,-20.069337,-29.263367
1772267903134,-26.282787,-103.189962,-83.769128,-13.866312
1772267903138,-31.758276,-173.270379,-133.778867,-3.915534
1772267903142,-18.960305,-110.735673,-80.435975,-9.786168
1772267903146,-0.644760,-79.576393,-55.419770,-18.140348
1772267903150,-3.815978,-216.849284,-170.505423,-15.235077
1772267903153,-17.581220,-323.322085,-255.794468,-2.202373
1772267903157,-26.032849,-265.239266,-202.498263,10.999391
1772267903161,-20.799979,-171.044451,-122.696311,13.133719
1772267903165,-8.542167,-236.604317,-174.995687,9.473102
1772267903169,-7.422551,-414.441102,-319.658046,10.229505
1772267903173,-12.280459,-348.080066,-267.697499,11.668223
1772267903177,-14.494332,-69.872061,-47.103773,12.725241
1772267903181,-10.227612,67.195822,58.834365,17.395256
1772267903185,-6.012916,82.394866,73.919317,25.068581
1772267903189,-8.858458,104.558851,100.400756,29.076658
1772267903192,-0.829291,107.871661,107.416791,22.543658
1772267903196,11.901076,57.094879,61.888590,12.182033
1772267903200,3.797094,4.254497,20.038777,11.847511
1772267903204,-22.614989,52.345553,78.605667,25.503053
1772267903208,-36.607391,122.739833,155.359043,39.336773
1772267903212,-5.905312,109.473663,138.318181,31.799432
1772267903122,-34.366084,-38.795312,-21.453040,-21.719366
1772267903126,-15.261458,-25.593638,-23.868809,-31.542136
1772267903130,-16.711117,-15.614485,-20.069337,-29.263367
1772267903134,-26.282787,-103.189962,-83.769128,-13.866312
1772267903138,-31.758276,-173.270379,-133.778867,-3.915534
1772267903142,-18.960305,-110.735673,-80.435975,-9.786168
1772267903146,-0.644760,-79.576393,-55.419770,-18.140348
1772267903150,-3.815978,-216.849284,-170.505423,-15.235077
1772267903153,-17.581220,-323.322085,-255.794468,-2.202373
1772267903157,-26.032849,-265.239266,-202.498263,10.999391
1772267903161,-20.799979,-171.044451,-122.696311,13.133719
1772267903165,-8.542167,-236.604317,-174.995687,9.473102
1772267903169,-7.422551,-414.441102,-319.658046,10.229505
1772267903173,-12.280459,-348.080066,-267.697499,11.668223
1772267903177,-14.494332,-69.872061,-47.103773,12.725241
1772267903181,-10.227612,67.195822,58.834365,17.395256
1772267903185,-6.012916,82.394866,73.919317,25.068581
1772267903189,-8.858458,104.558851,100.400756,29.076658
1772267903192,-0.829291,107.871661,107.416791,22.543658
1772267903196,11.901076,57.094879,61.888590,12.182033
1772267903200,3.797094,4.254497,20.038777,11.847511
1772267903204,-22.614989,52.345553,78.605667,25.503053
1772267903208,-36.607391,122.739833,155.359043,39.336773
1772267903212,-5.905312,109.473663,138.318181,31.799432
1772267903263,7.445208,113.459059,115.216524,17.089942
1772267903267,11.658475,213.485956,199.795992,20.332614
1772267903271,14.279875,165.493703,162.385928,22.260454
1772267903275,12.990006,144.426018,145.200921,23.190528
1772267903278,13.004074,259.082965,235.288896,19.878799
1772267903282,25.420220,356.518938,310.790026,9.870296
1772267903286,31.076820,211.268951,191.802197,5.674367
1772267903290,13.095077,-48.001175,-12.113794,17.467202
1772267903294,-3.875315,-19.998119,23.188771,32.590332
1772267903298,10.423235,229.044905,226.732597,33.788230
1772267903302,56.607812,289.585569,260.142600,16.593920
1772267903306,78.489768,102.352379,93.508710,3.955295
1772267903263,7.445208,113.459059,115.216524,17.089942
1772267903267,11.658475,213.485956,199.795992,20.332614
1772267903271,14.279875,165.493703,162.385928,22.260454
1772267903275,12.990006,144.426018,145.200921,23.190528
1772267903278,13.004074,259.082965,235.288896,19.878799
1772267903282,25.420220,356.518938,310.790026,9.870296
1772267903286,31.076820,211.268951,191.802197,5.674367
1772267903290,13.095077,-48.001175,-12.113794,17.467202
1772267903294,-3.875315,-19.998119,23.188771,32.590332
1772267903298,10.423235,229.044905,226.732597,33.788230
1772267903302,56.607812,289.585569,260.142600,16.593920
1772267903306,78.489768,102.352379,93.508710,3.955295
1772267903263,7.445208,113.459059,115.216524,17.089942
1772267903267,11.658475,213.485956,199.795992,20.332614
1772267903271,14.279875,165.493703,162.385928,22.260454
1772267903275,12.990006,144.426018,145.200921,23.190528
1772267903278,13.004074,259.082965,235.288896,19.878799
1772267903282,25.420220,356.518938,310.790026,9.870296
1772267903286,31.076820,211.268951,191.802197,5.674367
1772267903290,13.095077,-48.001175,-12.113794,17.467202
1772267903294,-3.875315,-19.998119,23.188771,32.590332
1772267903298,10.423235,229.044905,226.732597,33.788230
1772267903302,56.607812,289.585569,260.142600,16.593920
1772267903306,78.489768,102.352379,93.508710,3.955295
1772267903263,7.445208,113.459059,115.216524,17.089942
1772267903267,11.658475,213.485956,199.795992,20.332614
1772267903271,14.279875,165.493703,162.385928,22.260454
1772267903275,12.990006,144.426018,145.200921,23.190528
1772267903278,13.004074,259.082965,235.288896,19.878799
1772267903282,25.420220,356.518938,310.790026,9.870296
1772267903286,31.076820,211.268951,191.802197,5.674367
1772267903290,13.095077,-48.001175,-12.113794,17.467202
1772267903294,-3.875315,-19.998119,23.188771,32.590332
1772267903298,10.423235,229.044905,226.732597,33.788230
1772267903302,56.607812,289.585569,260.142600,16.593920
1772267903306,78.489768,102.352379,93.508710,3.955295
1772267903310,43.542551,166.728039,164.039659,27.281672
1772267903314,37.075486,206.143568,193.833605,29.957240
1772267903317,30.636315,109.960232,109.976254,30.178062
1772267903321,29.142481,111.446595,106.673312,27.916552
1772267903325,26.908221,223.859750,203.560946,28.238025
1772267903329,21.960290,242.752615,226.079144,30.740974
1772267903333,32.179314,142.520825,142.593872,24.423979
1772267903337,44.231831,33.118712,41.744697,6.866353
1772267903341,32.796822,-22.363891,-9.551219,-6.866897
1772267903345,2.575538,-56.339705,-25.211116,-0.453679
1772267903349,-16.027807,-17.596552,20.810614,16.028491
1772267903353,11.390898,195.151130,190.595370,11.625060
1772267903310,43.542551,166.728039,164.039659,27.281672
1772267903314,37.075486,206.143568,193.833605,29.957240
1772267903317,30.636315,109.960232,109.976254,30.178062
1772267903321,29.142481,111.446595,106.673312,27.916552
1772267903325,26.908221,223.859750,203.560946,28.238025
1772267903329,21.960290,242.752615,226.079144,30.740974
1772267903333,32.179314,142.520825,142.593872,24.423979
1772267903337,44.231831,33.118712,41.744697,6.866353
1772267903341,32.796822,-22.363891,-9.551219,-6.866897
1772267903345,2.575538,-56.339705,-25.211116,-0.453679
1772267903349,-16.027807,-17.596552,20.810614,16.028491
1772267903353,11.390898,195.151130,190.595370,11.625060
1772267903403,2.357020,283.298128,259.986975,8.311835
1772267903407,20.931376,317.523765,273.833596,-6.021248
1772267903411,23.907443,291.164591,235.521745,-14.775865
1772267903415,10.616197,256.750997,199.456217,-10.461139
1772267903419,-3.954729,191.266958,142.392445,-0.934891
1772267903423,1.934229,141.933037,92.137200,0.307199
1772267903427,15.599555,83.230201,25.060037,-7.751841
1772267903431,13.702236,-40.366026,-92.186698,-15.007855
1772267903435,-2.702795,-178.310176,-205.785341,-15.301265
1772267903439,-20.185713,-213.158527,-229.057679,-14.621112
1772267903442,-19.221132,-37.176111,-83.148999,-19.026406
1772267903446,-9.055124,164.297999,84.252643,-19.684149
1772267903450,-11.535381,189.237432,108.603228,-16.016875
1772267903454,-21.445384,176.621967,101.423171,-17.942856
1772267903458,-27.134953,188.133138,110.893474,-23.600229
1772267903462,-23.386271,136.539544,71.007663,-29.128166
1772267903466,-22.694436,51.525001,14.140736,-29.540705
1772267903470,-28.501395,9.717065,-7.225197,-23.628868
1772267903474,-20.006672,33.391637,10.852620,-22.931527
1772267903478,-2.406741,8.741382,-17.540340,-29.877530
1772267903482,0.662711,-174.376904,-163.297401,-32.986258
1772267903485,-22.422166,-324.605840,-266.366778,-20.737050
1772267903489,-47.033804,-188.128844,-136.218903,-0.416860
1772267903493,-28.505639,130.854925,122.049305,-1.988096
1772267903403,2.357020,283.298128,259.986975,8.311835
1772267903407,20.931376,317.523765,273.833596,-6.021248
1772267903411,23.907443,291.164591,235.521745,-14.775865
1772267903415,10.616197,256.750997,199.456217,-10.461139
1772267903419,-3.954729,191.266958,142.392445,-0.934891
1772267903423,1.934229,141.933037,92.137200,0.307199
1772267903427,15.599555,83.230201,25.060037,-7.751841
1772267903431,13.702236,-40.366026,-92.186698,-15.007855
1772267903435,-2.702795,-178.310176,-205.785341,-15.301265
1772267903439,-20.185713,-213.158527,-229.057679,-14.621112
1772267903442,-19.221132,-37.176111,-83.148999,-19.026406
1772267903446,-9.055124,164.297999,84.252643,-19.684149
1772267903450,-11.535381,189.237432,108.603228,-16.016875
1772267903454,-21.445384,176.621967,101.423171,-17.942856
1772267903458,-27.134953,188.133138,110.893474,-23.600229
1772267903462,-23.386271,136.539544,71.007663,-29.128166
1772267903466,-22.694436,51.525001,14.140736,-29.540705
1772267903470,-28.501395,9.717065,-7.225197,-23.628868
1772267903474,-20.006672,33.391637,10.852620,-22.931527
1772267903478,-2.406741,8.741382,-17.540340,-29.877530
1772267903482,0.662711,-174.376904,-163.297401,-32.986258
1772267903485,-22.422166,-324.605840,-266.366778,-20.737050
1772267903489,-47.033804,-188.128844,-136.218903,-0.416860
1772267903493,-28.505639,130.854925,122.049305,-1.988096
1772267903497,-16.256765,54.637640,54.318632,-15.709462
1772267903501,-10.001513,147.092263,132.463512,-18.892767
1772267903505,-4.505804,285.056905,246.762393,-19.771222
1772267903509,-0.561159,239.450555,207.043512,-17.709734
1772267903513,4.845656,48.257713,46.992446,-18.726125
1772267903517,-3.183899,-90.479471,-65.293347,-18.770783
1772267903521,-24.367292,-120.032824,-83.579715,-12.324202
1772267903524,-29.262835,-107.874793,-72.233883,-8.892898
1772267903528,-9.862018,-128.659257,-102.612301,-18.781233
1772267903532,13.882754,-158.585277,-143.195120,-36.233422
1772267903536,2.568703,-216.390052,-189.227257,-38.349943
1772267903540,-42.862237,-227.253469,-180.164889,-15.477200
1772267903497,-16.256765,54.637640,54.318632,-15.709462
1772267903501,-10.001513,147.092263,132.463512,-18.892767
1772267903505,-4.505804,285.056905,246.762393,-19.771222
1772267903509,-0.561159,239.450555,207.043512,-17.709734
1772267903513,4.845656,48.257713,46.992446,-18.726125
1772267903517,-3.183899,-90.479471,-65.293347,-18.770783
1772267903521,-24.367292,-120.032824,-83.579715,-12.324202
1772267903524,-29.262835,-107.874793,-72.233883,-8.892898
1772267903528,-9.862018,-128.659257,-102.612301,-18.781233
1772267903532,13.882754,-158.585277,-143.195120,-36.233422
1772267903536,2.568703,-216.390052,-189.227257,-38.349943
1772267903540,-42.862237,-227.253469,-180.164889,-15.477200
1772267903497,-16.256765,54.637640,54.318632,-15.709462
1772267903501,-10.001513,147.092263,132.463512,-18.892767
1772267903505,-4.505804,285.056905,246.762393,-19.771222
1772267903509,-0.561159,239.450555,207.043512,-17.709734
1772267903513,4.845656,48.257713,46.992446,-18.726125
1772267903517,-3.183899,-90.479471,-65.293347,-18.770783
1772267903521,-24.367292,-120.032824,-83.579715,-12.324202
1772267903524,-29.262835,-107.874793,-72.233883,-8.892898
1772267903528,-9.862018,-128.659257,-102.612301,-18.781233
1772267903532,13.882754,-158.585277,-143.195120,-36.233422
1772267903536,2.568703,-216.390052,-189.227257,-38.349943
1772267903540,-42.862237,-227.253469,-180.164889,-15.477200
1772267903497,-16.256765,54.637640,54.318632,-15.709462
1772267903501,-10.001513,147.092263,132.463512,-18.892767
1772267903505,-4.505804,285.056905,246.762393,-19.771222
1772267903509,-0.561159,239.450555,207.043512,-17.709734
1772267903513,4.845656,48.257713,46.992446,-18.726125
1772267903517,-3.183899,-90.479471,-65.293347,-18.770783
1772267903521,-24.367292,-120.032824,-83.579715,-12.324202
1772267903524,-29.262835,-107.874793,-72.233883,-8.892898
1772267903528,-9.862018,-128.659257,-102.612301,-18.781233
1772267903532,13.882754,-158.585277,-143.195120,-36.233422
1772267903536,2.568703,-216.390052,-189.227257,-38.349943
1772267903540,-42.862237,-227.253469,-180.164889,-15.477200
1772267903591,12.789837,68.205741,68.884927,-11.808164
1772267903595,16.246586,79.099135,78.995588,-8.758455
1772267903599,16.631007,16.558201,28.972782,-3.516001
1772267903603,17.865438,-61.068449,-35.185324,-2.402281
1772267903607,12.192517,-25.253484,0.432642,0.027203
1772267903610,1.444346,29.051450,58.288835,5.765576
1772267903614,8.516977,-40.896181,5.420716,4.536716
1772267903618,27.847844,-152.699182,-101.492551,-8.555063
1772267903622,31.996654,-134.103705,-100.384575,-19.873089
1772267903626,0.782181,-85.216339,-48.478009,-8.568507
1772267903630,-39.215353,-102.585863,-37.465706,16.613541
1772267903634,-29.142391,11.760736,60.558419,18.822515
1772267903591,12.789837,68.205741,68.884927,-11.808164
1772267903595,16.246586,79.099135,78.995588,-8.758455
1772267903599,16.631007,16.558201,28.972782,-3.516001
1772267903603,17.865438,-61.068449,-35.185324,-2.402281
1772267903607,12.192517,-25.253484,0.432642,0.027203
1772267903610,1.444346,29.051450,58.288835,5.765576
1772267903614,8.516977,-40.896181,5.420716,4.536716
1772267903618,27.847844,-152.699182,-101.492551,-8.555063
1772267903622,31.996654,-134.103705,-100.384575,-19.873089
1772267903626,0.782181,-85.216339,-48.478009,-8.568507
1772267903630,-39.215353,-102.585863,-37.465706,16.613541
1772267903634,-29.142391,11.760736,60.558419,18.822515
1772267903591,12.789837,68.205741,68.884927,-11.808164
1772267903595,16.246586,79.099135,78.995588,-8.758455
1772267903599,16.631007,16.558201,28.972782,-3.516001
1772267903603,17.865438,-61.068449,-35.185324,-2.402281
1772267903607,12.192517,-25.253484,0.432642,0.027203
1772267903610,1.444346,29.051450,58.288835,5.765576
1772267903614,8.516977,-40.896181,5.420716,4.536716
1772267903618,27.847844,-152.699182,-101.492551,-8.555063
1772267903622,31.996654,-134.103705,-100.384575,-19.873089
1772267903626,0.782181,-85.216339,-48.478009,-8.568507
1772267903630,-39.215353,-102.585863,-37.465706,16.613541
1772267903634,-29.142391,11.760736,60.558419,18.822515
1772267903591,12.789837,68.205741,68.884927,-11.808164
1772267903595,16.246586,79.099135,78.995588,-8.758455
1772267903599,16.631007,16.558201,28.972782,-3.516001
1772267903603,17.865438,-61.068449,-35.185324,-2.402281
1772267903607,12.192517,-25.253484,0.432642,0.027203
1772267903610,1.444346,29.051450,58.288835,5.765576
1772267903614,8.516977,-40.896181,5.420716,4.536716
1772267903618,27.847844,-152.699182,-101.492551,-8.555063
1772267903622,31.996654,-134.103705,-100.384575,-19.873089
1772267903626,0.782181,-85.216339,-48.478009,-8.568507
1772267903630,-39.215353,-102.585863,-37.465706,16.613541
1772267903634,-29.142391,11.760736,60.558419,18.822515
1772267903685,25.459230,-30.152070,-2.227289,7.611022
1772267903689,12.300775,38.180325,61.887598,10.411030
1772267903692,2.958538,-8.454560,30.848216,18.699953
1772267903696,1.426168,55.025913,86.854720,33.771778
1772267903700,6.779596,180.562322,183.589621,38.066876
1772267903704,22.891340,181.284638,170.774470,29.095828
1772267903708,28.913899,-43.108604,-23.961572,22.223671
1772267903712,11.897675,-308.211953,-240.823422,25.697134
1772267903716,-16.198988,-356.555906,-270.740359,36.859276
1772267903720,-25.057066,-241.492355,-174.997736,40.539809
1772267903724,6.980146,-98.000780,-75.612383,25.741960
1772267903728,38.616957,-32.664884,-42.437463,10.307361
1772267903685,25.459230,-30.152070,-2.227289,7.611022
1772267903689,12.300775,38.180325,61.887598,10.411030
1772267903692,2.958538,-8.454560,30.848216,18.699953
1772267903696,1.426168,55.025913,86.854720,33.771778
1772267903700,6.779596,180.562322,183.589621,38.066876
1772267903704,22.891340,181.284638,170.774470,29.095828
1772267903708,28.913899,-43.108604,-23.961572,22.223671
1772267903712,11.897675,-308.211953,-240.823422,25.697134
1772267903716,-16.198988,-356.555906,-270.740359,36.859276
1772267903720,-25.057066,-241.492355,-174.997736,40.539809
1772267903724,6.980146,-98.000780,-75.612383,25.741960
1772267903728,38.616957,-32.664884,-42.437463,10.307361
1772267903685,25.459230,-30.152070,-2.227289,7.611022
1772267903689,12.300775,38.180325,61.887598,10.411030
1772267903692,2.958538,-8.454560,30.848216,18.699953
1772267903696,1.426168,55.025913,86.854720,33.771778
1772267903700,6.779596,180.562322,183.589621,38.066876
1772267903704,22.891340,181.284638,170.774470,29.095828
1772267903708,28.913899,-43.108604,-23.961572,22.223671
1772267903712,11.897675,-308.211953,-240.823422,25.697134
1772267903716,-16.198988,-356.555906,-270.740359,36.859276
1772267903720,-25.057066,-241.492355,-174.997736,40.539809
1772267903724,6.980146,-98.000780,-75.612383,25.741960
1772267903728,38.616957,-32.664884,-42.437463,10.307361
1772267903685,25.459230,-30.152070,-2.227289,7.611022
1772267903689,12.300775,38.180325,61.887598,10.411030
1772267903692,2.958538,-8.454560,30.848216,18.699953
1772267903696,1.426168,55.025913,86.854720,33.771778
1772267903700,6.779596,180.562322,183.589621,38.066876
1772267903704,22.891340,181.284638,170.774470,29.095828
1772267903708,28.913899,-43.108604,-23.961572,22.223671
1772267903712,11.897675,-308.211953,-240.823422,25.697134
1772267903716,-16.198988,-356.555906,-270.740359,36.859276
1772267903720,-25.057066,-241.492355,-174.997736,40.539809
1772267903724,6.980146,-98.000780,-75.612383,25.741960
1772267903728,38.616957,-32.664884,-42.437463,10.307361
1772267903685,25.459230,-30.152070,-2.227289,7.611022
1772267903689,12.300775,38.180325,61.887598,10.411030
1772267903692,2.958538,-8.454560,30.848216,18.699953
1772267903696,1.426168,55.025913,86.854720,33.771778
1772267903700,6.779596,180.562322,183.589621,38.066876
1772267903704,22.891340,181.284638,170.774470,29.095828
1772267903708,28.913899,-43.108604,-23.961572,22.223671
1772267903712,11.897675,-308.211953,-240.823422,25.697134
1772267903716,-16.198988,-356.555906,-270.740359,36.859276
1772267903720,-25.057066,-241.492355,-174.997736,40.539809
1772267903724,6.980146,-98.000780,-75.612383,25.741960
1772267903728,38.616957,-32.664884,-42.437463,10.307361
1772267903685,25.459230,-30.152070,-2.227289,7.611022
1772267903689,12.300775,38.180325,61.887598,10.411030
1772267903692,2.958538,-8.454560,30.848216,18.699953
1772267903696,1.426168,55.025913,86.854720,33.771778
1772267903700,6.779596,180.562322,183.589621,38.066876
1772267903704,22.891340,181.284638,170.774470,29.095828
1772267903708,28.913899,-43.108604,-23.961572,22.223671
1772267903712,11.897675,-308.211953,-240.823422,25.697134
1772267903716,-16.198988,-356.555906,-270.740359,36.859276
1772267903720,-25.057066,-241.492355,-174.997736,40.539809
1772267903724,6.980146,-98.000780,-75.612383,25.741960
1772267903728,38.616957,-32.664884,-42.437463,10.307361
1772267903731,1.035473,36.214343,36.056925,37.754912
1772267903735,4.552137,55.446203,47.511435,38.797285
1772267903739,2.343797,-20.559043,-17.372671,40.180689
1772267903743,0.256897,-13.639504,-10.806169,36.982479
1772267903747,-12.438779,14.575386,15.369634,34.262087
1772267903751,-29.687601,-50.478009,-36.769878,36.696320
1772267903755,-26.071025,-141.430820,-114.715209,33.464097
1772267903759,-4.498126,-166.254235,-144.387401,16.319213
1772267903763,8.830916,-178.105531,-157.978460,0.576221
1772267903767,-13.948463,-280.241625,-227.014205,10.409898
1772267903771,-51.026984,-283.614196,-209.362157,36.839837
1772267903774,-42.324849,-67.075334,-34.744825,42.079447
1772267903731,1.035473,36.214343,36.056925,37.754912
1772267903735,4.552137,55.446203,47.511435,38.797285
1772267903739,2.343797,-20.559043,-17.372671,40.180689
1772267903743,0.256897,-13.639504,-10.806169,36.982479
1772267903747,-12.438779,14.575386,15.369634,34.262087
1772267903751,-29.687601,-50.478009,-36.769878,36.696320
1772267903755,-26.071025,-141.430820,-114.715209,33.464097
1772267903759,-4.498126,-166.254235,-144.387401,16.319213
1772267903763,8.830916,-178.105531,-157.978460,0.576221
1772267903767,-13.948463,-280.241625,-227.014205,10.409898
1772267903771,-51.026984,-283.614196,-209.362157,36.839837
1772267903774,-42.324849,-67.075334,-34.744825,42.079447
1772267903872,-9.022462,-234.138170,-216.073929,5.218524
1772267903876,-3.521951,-265.614223,-245.753227,4.552121
1772267903880,-3.942418,-111.964570,-129.296728,0.808697
1772267903884,-2.015826,-60.734502,-92.199520,-5.387665
1772267903888,-13.261735,-141.009638,-153.220378,-10.294988
1772267903892,-31.351440,-141.143528,-142.103500,-10.125852
1772267903896,-30.573780,-54.395093,-63.852822,-13.082229
1772267903899,-9.568622,-93.901545,-105.411547,-28.417876
1772267903903,5.737155,-248.195749,-246.572734,-44.895281
1772267903907,-20.551602,-308.741248,-290.697518,-38.151792
1772267903911,-64.299852,-208.364743,-183.527060,-10.889365
1772267903915,-58.118564,12.424984,7.814398,4.802836
1772267903872,-9.022462,-234.138170,-216.073929,5.218524
1772267903876,-3.521951,-265.614223,-245.753227,4.552121
1772267903880,-3.942418,-111.964570,-129.296728,0.808697
1772267903884,-2.015826,-60.734502,-92.199520,-5.387665
1772267903888,-13.261735,-141.009638,-153.220378,-10.294988
1772267903892,-31.351440,-141.143528,-142.103500,-10.125852
1772267903896,-30.573780,-54.395093,-63.852822,-13.082229
1772267903899,-9.568622,-93.901545,-105.411547,-28.417876
1772267903903,5.737155,-248.195749,-246.572734,-44.895281
1772267903907,-20.551602,-308.741248,-290.697518,-38.151792
1772267903911,-64.299852,-208.364743,-183.527060,-10.889365
1772267903915,-58.118564,12.424984,7.814398,4.802836
1772267903872,-9.022462,-234.138170,-216.073929,5.218524
1772267903876,-3.521951,-265.614223,-245.753227,4.552121
1772267903880,-3.942418,-111.964570,-129.296728,0.808697
1772267903884,-2.015826,-60.734502,-92.199520,-5.387665
1772267903888,-13.261735,-141.009638,-153.220378,-10.294988
1772267903892,-31.351440,-141.143528,-142.103500,-10.125852
1772267903896,-30.573780,-54.395093,-63.852822,-13.082229
1772267903899,-9.568622,-93.901545,-105.411547,-28.417876
1772267903903,5.737155,-248.195749,-246.572734,-44.895281
1772267903907,-20.551602,-308.741248,-290.697518,-38.151792
1772267903911,-64.299852,-208.364743,-183.527060,-10.889365
1772267903915,-58.118564,12.424984,7.814398,4.802836
1772267903872,-9.022462,-234.138170,-216.073929,5.218524
1772267903876,-3.521951,-265.614223,-245.753227,4.552121
1772267903880,-3.942418,-111.964570,-129.296728,0.808697
1772267903884,-2.015826,-60.734502,-92.199520,-5.387665
1772267903888,-13.261735,-141.009638,-153.220378,-10.294988
1772267903892,-31.351440,-141.143528,-142.103500,-10.125852
1772267903896,-30.573780,-54.395093,-63.852822,-13.082229
1772267903899,-9.568622,-93.901545,-105.411547,-28.417876
1772267903903,5.737155,-248.195749,-246.572734,-44.895281
1772267903907,-20.551602,-308.741248,-290.697518,-38.151792
1772267903911,-64.299852,-208.364743,-183.527060,-10.889365
1772267903915,-58.118564,12.424984,7.814398,4.802836
1772267903966,-9.818029,47.758930,43.425560,-15.032168
1772267903970,-19.001234,126.373410,112.981961,-13.082169
1772267903974,-18.097184,104.581905,95.522534,-11.359533
1772267903978,-16.617749,11.409587,21.341886,-7.833023
1772267903981,-15.120228,19.359250,36.992371,-2.004725
1772267903985,-3.527624,79.967852,91.477653,-0.186669
1772267903989,7.323018,-41.984631,-12.504424,-0.498054
1772267903993,4.617277,-238.263359,-168.639234,4.341345
1772267903997,-17.132371,-244.892210,-155.907263,16.979836
1772267904001,-28.295147,-68.480569,0.678826,25.011475
1772267904005,2.388352,149.110612,166.533921,9.930521
1772267904009,39.993798,267.738736,237.096094,-18.388636
1772267903966,-9.818029,47.758930,43.425560,-15.032168
1772267903970,-19.001234,126.373410,112.981961,-13.082169
1772267903974,-18.097184,104.581905,95.522534,-11.359533
1772267903978,-16.617749,11.409587,21.341886,-7.833023
1772267903981,-15.120228,19.359250,36.992371,-2.004725
1772267903985,-3.527624,79.967852,91.477653,-0.186669
1772267903989,7.323018,-41.984631,-12.504424,-0.498054
1772267903993,4.617277,-238.263359,-168.639234,4.341345
1772267903997,-17.132371,-244.892210,-155.907263,16.979836
1772267904001,-28.295147,-68.480569,0.678826,25.011475
1772267904005,2.388352,149.110612,166.533921,9.930521
1772267904009,39.993798,267.738736,237.096094,-18.388636
1772267904013,1.088705,270.794756,262.470194,-1.752701
1772267904017,1.863050,250.804675,248.180338,-3.944348
1772267904021,-1.890417,150.072939,164.035967,-11.353007
1772267904024,-6.486740,119.635683,136.384040,-22.935659
1772267904028,-19.615426,156.395254,167.181740,-24.737935
1772267904032,-30.753208,157.491316,174.591886,-17.269426
1772267904036,-23.715459,70.174247,105.305863,-14.317703
1772267904040,0.119696,-34.710475,7.365075,-23.744449
1772267904044,22.355357,-17.261862,9.372477,-34.253199
1772267904048,9.066952,-15.997496,19.771659,-22.930615
1772267904052,-26.250144,-141.712237,-55.264575,4.916900
1772267904056,-27.599920,-114.129138,-19.768805,17.953970
1772267904013,1.088705,270.794756,262.470194,-1.752701
1772267904017,1.863050,250.804675,248.180338,-3.944348
1772267904021,-1.890417,150.072939,164.035967,-11.353007
1772267904024,-6.486740,119.635683,136.384040,-22.935659
1772267904028,-19.615426,156.395254,167.181740,-24.737935
1772267904032,-30.753208,157.491316,174.591886,-17.269426
1772267904036,-23.715459,70.174247,105.305863,-14.317703
1772267904040,0.119696,-34.710475,7.365075,-23.744449
1772267904044,22.355357,-17.261862,9.372477,-34.253199
1772267904048,9.066952,-15.997496,19.771659,-22.930615
1772267904052,-26.250144,-141.712237,-55.264575,4.916900
1772267904056,-27.599920,-114.129138,-19.768805,17.953970
1772267904060,-1.965507,84.403406,118.949272,-9.174061
1772267904063,4.600444,149.327804,164.142545,-7.185189
1772267904067,9.344460,47.241986,70.182067,-5.144956
1772267904071,10.750070,51.345772,65.658978,-3.238161
1772267904075,22.586731,171.509078,157.553460,-0.126724
1772267904079,32.902669,138.322155,128.834515,3.802521
1772267904083,27.237023,-79.885451,-38.684579,6.109647
1772267904087,7.884262,-229.514659,-150.102676,4.517721
1772267904091,0.186162,-137.773513,-84.303587,-12.048970
1772267904095,16.018667,14.641898,12.638115,-49.742067
1772267904099,18.623468,-20.803448,-39.488723,-83.647704
1772267904103,-10.773733,-143.524799,-131.718500,-76.151146
1772267904060,-1.965507,84.403406,118.949272,-9.174061
1772267904063,4.600444,149.327804,164.142545,-7.185189
1772267904067,9.344460,47.241986,70.182067,-5.144956
1772267904071,10.750070,51.345772,65.658978,-3.238161
1772267904075,22.586731,171.509078,157.553460,-0.126724
1772267904079,32.902669,138.322155,128.834515,3.802521
1772267904083,27.237023,-79.885451,-38.684579,6.109647
1772267904087,7.884262,-229.514659,-150.102676,4.517721
1772267904091,0.186162,-137.773513,-84.303587,-12.048970
1772267904095,16.018667,14.641898,12.638115,-49.742067
1772267904099,18.623468,-20.803448,-39.488723,-83.647704
1772267904103,-10.773733,-143.524799,-131.718500,-76.151146
1772267904106,-3.321309,47.725558,27.493157,-63.687631
1772267904110,-8.763580,2.161546,-10.769575,-59.522456
1772267904114,-10.959598,-97.306613,-94.450945,-62.724917
1772267904118,-15.955818,-72.934598,-75.907275,-67.045815
1772267904122,-13.503409,21.137580,1.500693,-67.823832
1772267904126,2.787135,52.702593,27.792205,-66.555573
1772267904130,17.702230,-60.204366,-68.654518,-63.526796
1772267904134,18.426032,-219.151459,-199.913155,-56.435732
1772267904138,-1.286187,-321.377571,-273.162173,-39.151053
1772267904142,-12.460221,-339.695474,-276.758118,-21.187358
1772267904145,12.703827,-174.946314,-149.865537,-21.883344
1772267904149,44.518643,38.330458,0.735138,-42.525799
1772267904106,-3.321309,47.725558,27.493157,-63.687631
1772267904110,-8.763580,2.161546,-10.769575,-59.522456
1772267904114,-10.959598,-97.306613,-94.450945,-62.724917
1772267904118,-15.955818,-72.934598,-75.907275,-67.045815
1772267904122,-13.503409,21.137580,1.500693,-67.823832
1772267904126,2.787135,52.702593,27.792205,-66.555573
1772267904130,17.702230,-60.204366,-68.654518,-63.526796
1772267904134,18.426032,-219.151459,-199.913155,-56.435732
1772267904138,-1.286187,-321.377571,-273.162173,-39.151053
1772267904142,-12.460221,-339.695474,-276.758118,-21.187358
1772267904145,12.703827,-174.946314,-149.865537,-21.883344
1772267904149,44.518643,38.330458,0.735138,-42.525799
1772267904153,4.438651,29.549066,16.075827,-25.430240
1772267904157,4.316752,69.511658,53.587687,-26.830498
1772267904161,6.990738,76.523180,59.905320,-23.534633
1772267904165,11.952145,65.231208,48.872823,-18.796576
1772267904169,2.640993,-47.874752,-43.315624,-10.835931
1772267904173,-12.244985,-154.781227,-126.781389,-3.139149
1772267904177,-12.653791,-127.232734,-104.076506,-0.280494
1772267904181,9.977893,-66.913359,-64.172810,-6.106934
1772267904185,37.177770,-135.090214,-127.268793,-13.695657
1772267904188,25.082790,-293.151013,-249.256671,-2.200943
1772267904192,-14.062904,-270.597973,-213.461972,27.209832
1772267904196,-21.704163,-26.441591,-7.310638,44.377045
1772267904200,26.115799,118.066801,81.268916,14.442744
1772267904204,26.277968,83.168489,53.306590,10.199135
1772267904208,6.951362,70.147959,52.677943,21.753926
1772267904212,-10.365858,91.203186,78.452956,35.712121
1772267904216,-3.306984,125.215882,105.428796,36.647178
1772267904220,18.033881,95.749130,72.858206,29.760873
1772267904224,32.437429,-1.552603,-9.965735,25.912486
1772267904228,26.554636,-154.267491,-129.572822,29.556187
1772267904231,14.934511,-293.507458,-238.988522,32.201264
1772267904235,14.567392,-209.330541,-173.073942,26.904243
1772267904239,19.464927,37.368629,21.359453,19.803831
1772267904243,24.474039,151.829055,112.957571,14.398887
1772267904247,22.637430,113.639573,83.569260,11.708942
1772267904251,16.137598,113.177965,83.296977,14.481732
1772267904255,10.819906,164.112504,127.626827,19.828327
1772267904259,0.041290,123.663990,100.179162,22.808504
1772267904263,-4.763388,60.158151,53.302034,23.801065
1772267904267,5.797221,84.780375,72.451310,25.169658
1772267904270,18.221886,72.846445,56.678464,23.883506
1772267904274,12.570102,-87.071578,-73.198196,20.886922
1772267904278,-20.383116,-286.064452,-227.111700,26.367572
1772267904282,-45.251670,-267.725141,-205.497076,33.423570
1772267904286,-28.077882,-18.516613,-10.511651,23.598452
1772267904290,9.512986,184.657758,131.470378,-0.943614
1772267904153,4.438651,29.549066,16.075827,-25.430240
1772267904157,4.316752,69.511658,53.587687,-26.830498
1772267904161,6.990738,76.523180,59.905320,-23.534633
1772267904165,11.952145,65.231208,48.872823,-18.796576
1772267904169,2.640993,-47.874752,-43.315624,-10.835931
1772267904173,-12.244985,-154.781227,-126.781389,-3.139149
1772267904177,-12.653791,-127.232734,-104.076506,-0.280494
1772267904181,9.977893,-66.913359,-64.172810,-6.106934
1772267904185,37.177770,-135.090214,-127.268793,-13.695657
1772267904188,25.082790,-293.151013,-249.256671,-2.200943
1772267904192,-14.062904,-270.597973,-213.461972,27.209832
1772267904196,-21.704163,-26.441591,-7.310638,44.377045
1772267904200,26.115799,118.066801,81.268916,14.442744
1772267904204,26.277968,83.168489,53.306590,10.199135
1772267904208,6.951362,70.147959,52.677943,21.753926
1772267904212,-10.365858,91.203186,78.452956,35.712121
1772267904216,-3.306984,125.215882,105.428796,36.647178
1772267904220,18.033881,95.749130,72.858206,29.760873
1772267904224,32.437429,-1.552603,-9.965735,25.912486
1772267904228,26.554636,-154.267491,-129.572822,29.556187
1772267904231,14.934511,-293.507458,-238.988522,32.201264
1772267904235,14.567392,-209.330541,-173.073942,26.904243
1772267904239,19.464927,37.368629,21.359453,19.803831
1772267904243,24.474039,151.829055,112.957571,14.398887
1772267904247,22.637430,113.639573,83.569260,11.708942
1772267904251,16.137598,113.177965,83.296977,14.481732
1772267904255,10.819906,164.112504,127.626827,19.828327
1772267904259,0.041290,123.663990,100.179162,22.808504
1772267904263,-4.763388,60.158151,53.302034,23.801065
1772267904267,5.797221,84.780375,72.451310,25.169658
1772267904270,18.221886,72.846445,56.678464,23.883506
1772267904274,12.570102,-87.071578,-73.198196,20.886922
1772267904278,-20.383116,-286.064452,-227.111700,26.367572
1772267904282,-45.251670,-267.725141,-205.497076,33.423570
1772267904286,-28.077882,-18.516613,-10.511651,23.598452
1772267904290,9.512986,184.657758,131.470378,-0.943614
1772267904200,26.115799,118.066801,81.268916,14.442744
1772267904204,26.277968,83.168489,53.306590,10.199135
1772267904208,6.951362,70.147959,52.677943,21.753926
1772267904212,-10.365858,91.203186,78.452956,35.712121
1772267904216,-3.306984,125.215882,105.428796,36.647178
1772267904220,18.033881,95.749130,72.858206,29.760873
1772267904224,32.437429,-1.552603,-9.965735,25.912486
1772267904228,26.554636,-154.267491,-129.572822,29.556187
1772267904231,14.934511,-293.507458,-238.988522,32.201264
1772267904235,14.567392,-209.330541,-173.073942,26.904243
1772267904239,19.464927,37.368629,21.359453,19.803831
1772267904243,24.474039,151.829055,112.957571,14.398887
1772267904247,22.637430,113.639573,83.569260,11.708942
1772267904251,16.137598,113.177965,83.296977,14.481732
1772267904255,10.819906,164.112504,127.626827,19.828327
1772267904259,0.041290,123.663990,100.179162,22.808504
1772267904263,-4.763388,60.158151,53.302034,23.801065
1772267904267,5.797221,84.780375,72.451310,25.169658
1772267904270,18.221886,72.846445,56.678464,23.883506
1772267904274,12.570102,-87.071578,-73.198196,20.886922
1772267904278,-20.383116,-286.064452,-227.111700,26.367572
1772267904282,-45.251670,-267.725141,-205.497076,33.423570
1772267904286,-28.077882,-18.516613,-10.511651,23.598452
1772267904290,9.512986,184.657758,131.470378,-0.943614
1772267904200,26.115799,118.066801,81.268916,14.442744
1772267904204,26.277968,83.168489,53.306590,10.199135
1772267904208,6.951362,70.147959,52.677943,21.753926
1772267904212,-10.365858,91.203186,78.452956,35.712121
1772267904216,-3.306984,125.215882,105.428796,36.647178
1772267904220,18.033881,95.749130,72.858206,29.760873
1772267904224,32.437429,-1.552603,-9.965735,25.912486
1772267904228,26.554636,-154.267491,-129.572822,29.556187
1772267904231,14.934511,-293.507458,-238.988522,32.201264
1772267904235,14.567392,-209.330541,-173.073942,26.904243
1772267904239,19.464927,37.368629,21.359453,19.803831
1772267904243,24.474039,151.829055,112.957571,14.398887
1772267904247,22.637430,113.639573,83.569260,11.708942
1772267904251,16.137598,113.177965,83.296977,14.481732
1772267904255,10.819906,164.112504,127.626827,19.828327
1772267904259,0.041290,123.663990,100.179162,22.808504
1772267904263,-4.763388,60.158151,53.302034,23.801065
1772267904267,5.797221,84.780375,72.451310,25.169658
1772267904270,18.221886,72.846445,56.678464,23.883506
1772267904274,12.570102,-87.071578,-73.198196,20.886922
1772267904278,-20.383116,-286.064452,-227.111700,26.367572
1772267904282,-45.251670,-267.725141,-205.497076,33.423570
1772267904286,-28.077882,-18.516613,-10.511651,23.598452
1772267904290,9.512986,184.657758,131.470378,-0.943614
1772267904294,-21.235843,60.988207,44.386839,13.254647
1772267904298,-14.391144,144.007707,108.801642,14.940348
1772267904302,-5.913092,231.552579,178.223564,20.177617
1772267904306,3.764544,202.505928,153.936583,23.345373
1772267904310,-2.645420,49.854576,29.956658,25.485658
1772267904313,-18.538317,-50.545664,-45.933833,26.624350
1772267904317,-22.738007,-63.095584,-54.108026,25.799312
1772267904321,-2.427904,-71.577068,-74.801583,12.323938
1772267904325,22.209420,-65.046771,-90.043081,-11.788369
1772267904329,7.795038,-121.907776,-141.333129,-15.091001
1772267904333,-35.691781,-220.492483,-201.709117,12.357328
1772267904337,-52.443904,-99.784968,-85.193957,35.831274
1772267904294,-21.235843,60.988207,44.386839,13.254647
1772267904298,-14.391144,144.007707,108.801642,14.940348
1772267904302,-5.913092,231.552579,178.223564,20.177617
1772267904306,3.764544,202.505928,153.936583,23.345373
1772267904310,-2.645420,49.854576,29.956658,25.485658
1772267904313,-18.538317,-50.545664,-45.933833,26.624350
1772267904317,-22.738007,-63.095584,-54.108026,25.799312
1772267904321,-2.427904,-71.577068,-74.801583,12.323938
1772267904325,22.209420,-65.046771,-90.043081,-11.788369
1772267904329,7.795038,-121.907776,-141.333129,-15.091001
1772267904333,-35.691781,-220.492483,-201.709117,12.357328
1772267904337,-52.443904,-99.784968,-85.193957,35.831274
1772267904341,-12.102903,-16.749968,-37.538255,11.651996
1772267904345,-5.600170,37.257344,0.695539,6.862494
1772267904349,-2.146580,64.096385,16.810862,4.484777
1772267904353,4.466606,44.436092,-1.328223,0.031318
1772267904356,16.469429,64.108260,10.890428,-10.156810
1772267904360,22.426206,55.208804,-0.819295,-18.298866
1772267904364,16.501785,-98.215858,-121.455983,-10.388353
1772267904368,-1.850030,-262.965755,-247.778590,8.189250
1772267904372,-2.110975,-162.365183,-168.666710,5.965541
1772267904376,30.071691,55.177987,-7.138908,-14.940317
1772267904380,51.926005,36.538527,-35.891784,-22.710269
1772267904384,26.570046,-89.067744,-127.580596,-7.354597
1772267904341,-12.102903,-16.749968,-37.538255,11.651996
1772267904345,-5.600170,37.257344,0.695539,6.862494
1772267904349,-2.146580,64.096385,16.810862,4.484777
1772267904353,4.466606,44.436092,-1.328223,0.031318
1772267904356,16.469429,64.108260,10.890428,-10.156810
1772267904360,22.426206,55.208804,-0.819295,-18.298866
1772267904364,16.501785,-98.215858,-121.455983,-10.388353
1772267904368,-1.850030,-262.965755,-247.778590,8.189250
1772267904372,-2.110975,-162.365183,-168.666710,5.965541
1772267904376,30.071691,55.177987,-7.138908,-14.940317
1772267904380,51.926005,36.538527,-35.891784,-22.710269
1772267904384,26.570046,-89.067744,-127.580596,-7.354597
1772267904388,15.353809,105.019234,44.329443,2.844000
1772267904392,6.021280,94.641419,42.899699,7.826215
1772267904395,1.934161,12.107744,-19.150576,10.757808
1772267904399,-2.117618,-54.338141,-72.063241,12.828073
1772267904403,0.411879,45.115918,12.115167,15.913383
1772267904407,9.717778,197.693577,142.543961,16.555324
1772267904411,19.490515,129.359206,89.406485,18.485002
1772267904415,20.075341,-93.494532,-89.731244,23.100895
1772267904419,-1.422921,-189.706017,-160.695189,26.696832
1772267904423,-18.860846,-85.978386,-63.636372,30.671828
1772267904427,-2.305816,32.779503,39.242794,31.474006
1772267904431,34.185428,82.064890,68.049982,17.203541
1772267904435,1.020714,135.328264,125.625902,21.808255
1772267904438,2.596539,161.345658,145.417524,18.093784
1772267904442,6.276552,59.033784,60.744567,14.316974
1772267904446,11.829156,102.492958,94.016145,5.430626
1772267904450,5.683394,202.566239,174.157269,3.445132
1772267904454,-2.255952,174.277472,160.306357,18.396730
1772267904458,-0.110685,19.201612,47.461488,43.003446
1772267904462,20.355810,-63.842744,-23.754989,43.740068
1772267904466,45.070346,17.862247,23.366275,14.529787
1772267904470,33.859196,25.264455,22.295525,-4.776167
1772267904474,-11.179753,-61.325810,-26.785492,3.323300
1772267904477,-37.404731,1.141649,46.612143,15.561873
1772267904481,0.421233,213.875458,197.673521,-17.778929
1772267904485,4.668519,264.149899,234.180772,-16.951319
1772267904489,5.088989,184.643942,166.128545,-10.537362
1772267904493,7.108904,201.538361,181.835576,-7.931204
1772267904497,13.595657,284.160091,252.237018,-5.593158
1772267904501,20.856338,226.843532,205.609287,-2.146357
1772267904505,19.811714,49.333171,66.629561,0.979863
1772267904509,-0.796837,-70.356078,-16.032276,10.634306
1772267904513,-6.926924,-72.158778,-10.798555,18.283956
1772267904517,20.617267,-32.539119,4.452695,2.509314
1772267904520,42.005708,38.650414,39.436451,-25.101983
1772267904524,22.416641,93.248975,87.742802,-23.757936
1772267904481,0.421233,213.875458,197.673521,-17.778929
1772267904485,4.668519,264.149899,234.180772,-16.951319
1772267904489,5.088989,184.643942,166.128545,-10.537362
1772267904493,7.108904,201.538361,181.835576,-7.931204
1772267904497,13.595657,284.160091,252.237018,-5.593158
1772267904501,20.856338,226.843532,205.609287,-2.146357
1772267904505,19.811714,49.333171,66.629561,0.979863
1772267904509,-0.796837,-70.356078,-16.032276,10.634306
1772267904513,-6.926924,-72.158778,-10.798555,18.283956
1772267904517,20.617267,-32.539119,4.452695,2.509314
1772267904520,42.005708,38.650414,39.436451,-25.101983
1772267904524,22.416641,93.248975,87.742802,-23.757936
1772267904528,7.192347,243.414074,224.957082,-0.147271
1772267904532,1.469468,219.798260,205.660948,6.897932
1772267904536,1.021570,204.855581,191.853401,9.079897
1772267904540,-0.597867,179.618203,171.325665,11.191519
1772267904544,0.407285,135.615218,140.364587,21.377016
1772267904548,5.881818,125.657020,135.051172,28.332005
1772267904552,17.841262,118.046174,120.801240,17.576846
1772267904556,24.083479,24.337969,35.156763,4.796236
1772267904560,5.648949,-174.218338,-121.036569,7.637455
1772267904563,-10.726327,-261.358943,-178.856914,18.077397
1772267904567,7.630050,-77.702162,-34.272437,23.285514
1772267904571,50.442378,172.983406,143.648415,7.158584
1772267904528,7.192347,243.414074,224.957082,-0.147271
1772267904532,1.469468,219.798260,205.660948,6.897932
1772267904536,1.021570,204.855581,191.853401,9.079897
1772267904540,-0.597867,179.618203,171.325665,11.191519
1772267904544,0.407285,135.615218,140.364587,21.377016
1772267904548,5.881818,125.657020,135.051172,28.332005
1772267904552,17.841262,118.046174,120.801240,17.576846
1772267904556,24.083479,24.337969,35.156763,4.796236
1772267904560,5.648949,-174.218338,-121.036569,7.637455
1772267904563,-10.726327,-261.358943,-178.856914,18.077397
1772267904567,7.630050,-77.702162,-34.272437,23.285514
1772267904571,50.442378,172.983406,143.648415,7.158584
1772267904528,7.192347,243.414074,224.957082,-0.147271
1772267904532,1.469468,219.798260,205.660948,6.897932
1772267904536,1.021570,204.855581,191.853401,9.079897
1772267904540,-0.597867,179.618203,171.325665,11.191519
1772267904544,0.407285,135.615218,140.364587,21.377016
1772267904548,5.881818,125.657020,135.051172,28.332005
1772267904552,17.841262,118.046174,120.801240,17.576846
1772267904556,24.083479,24.337969,35.156763,4.796236
1772267904560,5.648949,-174.218338,-121.036569,7.637455
1772267904563,-10.726327,-261.358943,-178.856914,18.077397
1772267904567,7.630050,-77.702162,-34.272437,23.285514
1772267904571,50.442378,172.983406,143.648415,7.158584
1772267904528,7.192347,243.414074,224.957082,-0.147271
1772267904532,1.469468,219.798260,205.660948,6.897932
1772267904536,1.021570,204.855581,191.853401,9.079897
1772267904540,-0.597867,179.618203,171.325665,11.191519
1772267904544,0.407285,135.615218,140.364587,21.377016
1772267904548,5.881818,125.657020,135.051172,28.332005
1772267904552,17.841262,118.046174,120.801240,17.576846
1772267904556,24.083479,24.337969,35.156763,4.796236
1772267904560,5.648949,-174.218338,-121.036569,7.637455
1772267904563,-10.726327,-261.358943,-178.856914,18.077397
1772267904567,7.630050,-77.702162,-34.272437,23.285514
1772267904571,50.442378,172.983406,143.648415,7.158584
1772267904575,26.800199,84.247601,78.970816,11.274032
1772267904579,28.575868,162.913768,139.012824,4.390972
1772267904583,29.872202,260.241345,212.533726,-3.008382
1772267904587,32.028969,263.915672,209.638623,-6.831930
1772267904591,25.660878,105.662427,79.671813,-2.722165
1772267904595,12.142571,-20.310949,-12.406556,7.173874
1772267904599,3.679750,2.775968,14.668608,17.922456
1772267904602,22.105744,75.640399,63.488276,13.347061
1772267904606,54.233333,-7.495136,-27.509954,-8.407963
1772267904610,51.886835,-203.662080,-199.197183,-22.163684
1772267904614,10.666484,-221.180614,-197.074615,-9.845605
1772267904618,-22.202815,-30.833748,-21.204992,13.230164
1772267904575,26.800199,84.247601,78.970816,11.274032
1772267904579,28.575868,162.913768,139.012824,4.390972
1772267904583,29.872202,260.241345,212.533726,-3.008382
1772267904587,32.028969,263.915672,209.638623,-6.831930
1772267904591,25.660878,105.662427,79.671813,-2.722165
1772267904595,12.142571,-20.310949,-12.406556,7.173874
1772267904599,3.679750,2.775968,14.668608,17.922456
1772267904602,22.105744,75.640399,63.488276,13.347061
1772267904606,54.233333,-7.495136,-27.509954,-8.407963
1772267904610,51.886835,-203.662080,-199.197183,-22.163684
1772267904614,10.666484,-221.180614,-197.074615,-9.845605
1772267904618,-22.202815,-30.833748,-21.204992,13.230164
1772267904622,23.675124,126.139829,81.436643,-6.196431
1772267904626,32.984759,43.657188,2.059886,-12.126507
1772267904630,13.375882,-17.120232,-46.688544,-5.986584
1772267904634,-11.562311,-25.345391,-40.935629,4.944298
1772267904638,-17.607125,9.426150,-7.661096,8.101061
1772267904642,-2.675739,60.844416,25.495626,1.852842
1772267904645,16.535345,27.262446,-7.348846,-2.871754
1772267904649,13.744536,-147.016021,-140.545314,1.786815
1772267904653,1.693815,-210.207112,-174.156166,11.273252
1772267904657,0.983940,-20.724767,-10.986184,17.406616
1772267904661,8.454533,160.989947,130.617455,15.582979
1772267904665,15.930716,171.082967,133.453272,8.516185
1772267904669,13.560821,130.844637,102.877717,3.611114
1772267904673,8.997784,169.180484,136.785278,2.108458
1772267904677,4.676476,201.323575,163.032283,0.550979
1772267904681,-6.044768,92.241693,73.821046,-3.177173
1772267904684,-11.271769,-30.156853,-23.867400,-10.192388
1772267904688,-6.610661,-23.608762,-19.079942,-18.786178
1772267904692,5.352557,-5.283906,-10.014886,-23.076677
1772267904696,11.290084,-116.604239,-101.125165,-15.983415
1772267904700,-3.159676,-220.486032,-172.902014,3.265271
1772267904704,-18.626062,-121.412815,-74.129411,26.385637
1772267904708,-13.082835,63.682227,78.458501,32.304035
1772267904712,19.746362,197.848768,162.348687,6.356808
1772267904622,23.675124,126.139829,81.436643,-6.196431
1772267904626,32.984759,43.657188,2.059886,-12.126507
1772267904630,13.375882,-17.120232,-46.688544,-5.986584
1772267904634,-11.562311,-25.345391,-40.935629,4.944298
1772267904638,-17.607125,9.426150,-7.661096,8.101061
1772267904642,-2.675739,60.844416,25.495626,1.852842
1772267904645,16.535345,27.262446,-7.348846,-2.871754
1772267904649,13.744536,-147.016021,-140.545314,1.786815
1772267904653,1.693815,-210.207112,-174.156166,11.273252
1772267904657,0.983940,-20.724767,-10.986184,17.406616
1772267904661,8.454533,160.989947,130.617455,15.582979
1772267904665,15.930716,171.082967,133.453272,8.516185
1772267904669,13.560821,130.844637,102.877717,3.611114
1772267904673,8.997784,169.180484,136.785278,2.108458
1772267904677,4.676476,201.323575,163.032283,0.550979
1772267904681,-6.044768,92.241693,73.821046,-3.177173
1772267904684,-11.271769,-30.156853,-23.867400,-10.192388
1772267904688,-6.610661,-23.608762,-19.079942,-18.786178
1772267904692,5.352557,-5.283906,-10.014886,-23.076677
1772267904696,11.290084,-116.604239,-101.125165,-15.983415
1772267904700,-3.159676,-220.486032,-172.902014,3.265271
1772267904704,-18.626062,-121.412815,-74.129411,26.385637
1772267904708,-13.082835,63.682227,78.458501,32.304035
1772267904712,19.746362,197.848768,162.348687,6.356808
1772267904622,23.675124,126.139829,81.436643,-6.196431
1772267904626,32.984759,43.657188,2.059886,-12.126507
1772267904630,13.375882,-17.120232,-46.688544,-5.986584
1772267904634,-11.562311,-25.345391,-40.935629,4.944298
1772267904638,-17.607125,9.426150,-7.661096,8.101061
1772267904642,-2.675739,60.844416,25.495626,1.852842
1772267904645,16.535345,27.262446,-7.348846,-2.871754
1772267904649,13.744536,-147.016021,-140.545314,1.786815
1772267904653,1.693815,-210.207112,-174.156166,11.273252
1772267904657,0.983940,-20.724767,-10.986184,17.406616
1772267904661,8.454533,160.989947,130.617455,15.582979
1772267904665,15.930716,171.082967,133.453272,8.516185
1772267904669,13.560821,130.844637,102.877717,3.611114
1772267904673,8.997784,169.180484,136.785278,2.108458
1772267904677,4.676476,201.323575,163.032283,0.550979
1772267904681,-6.044768,92.241693,73.821046,-3.177173
1772267904684,-11.271769,-30.156853,-23.867400,-10.192388
1772267904688,-6.610661,-23.608762,-19.079942,-18.786178
1772267904692,5.352557,-5.283906,-10.014886,-23.076677
1772267904696,11.290084,-116.604239,-101.125165,-15.983415
1772267904700,-3.159676,-220.486032,-172.902014,3.265271
1772267904704,-18.626062,-121.412815,-74.129411,26.385637
1772267904708,-13.082835,63.682227,78.458501,32.304035
1772267904712,19.746362,197.848768,162.348687,6.356808
1772267904622,23.675124,126.139829,81.436643,-6.196431
1772267904626,32.984759,43.657188,2.059886,-12.126507
1772267904630,13.375882,-17.120232,-46.688544,-5.986584
1772267904634,-11.562311,-25.345391,-40.935629,4.944298
1772267904638,-17.607125,9.426150,-7.661096,8.101061
1772267904642,-2.675739,60.844416,25.495626,1.852842
1772267904645,16.535345,27.262446,-7.348846,-2.871754
1772267904649,13.744536,-147.016021,-140.545314,1.786815
1772267904653,1.693815,-210.207112,-174.156166,11.273252
1772267904657,0.983940,-20.724767,-10.986184,17.406616
1772267904661,8.454533,160.989947,130.617455,15.582979
1772267904665,15.930716,171.082967,133.453272,8.516185
1772267904669,13.560821,130.844637,102.877717,3.611114
1772267904673,8.997784,169.180484,136.785278,2.108458
1772267904677,4.676476,201.323575,163.032283,0.550979
1772267904681,-6.044768,92.241693,73.821046,-3.177173
1772267904684,-11.271769,-30.156853,-23.867400,-10.192388
1772267904688,-6.610661,-23.608762,-19.079942,-18.786178
1772267904692,5.352557,-5.283906,-10.014886,-23.076677
1772267904696,11.290084,-116.604239,-101.125165,-15.983415
1772267904700,-3.159676,-220.486032,-172.902014,3.265271
1772267904704,-18.626062,-121.412815,-74.129411,26.385637
1772267904708,-13.082835,63.682227,78.458501,32.304035
1772267904712,19.746362,197.848768,162.348687,6.356808
1772267904856,-11.858305,-83.336444,-91.507009,-3.074192
1772267904860,-12.583998,-26.978236,-46.877450,1.160134
1772267904864,-13.147200,-22.013558,-37.671951,4.670636
1772267904868,-13.034796,31.875724,11.456511,4.204124
1772267904872,-19.207846,95.810472,70.874709,1.396230
1772267904876,-34.485942,102.169921,93.869455,-1.473494
1772267904880,-49.407414,-2.793870,22.959458,-5.003302
1772267904884,-35.559523,-101.766302,-62.482345,-9.145481
1772267904888,-4.497830,-117.911842,-90.256589,-15.109473
1772267904892,0.486025,-174.845360,-140.920712,-21.549643
1772267904895,-33.154143,-209.045061,-154.233487,-13.923741
1772267904899,-70.283774,-104.018918,-46.122371,11.691218
1772267904856,-11.858305,-83.336444,-91.507009,-3.074192
1772267904860,-12.583998,-26.978236,-46.877450,1.160134
1772267904864,-13.147200,-22.013558,-37.671951,4.670636
1772267904868,-13.034796,31.875724,11.456511,4.204124
1772267904872,-19.207846,95.810472,70.874709,1.396230
1772267904876,-34.485942,102.169921,93.869455,-1.473494
1772267904880,-49.407414,-2.793870,22.959458,-5.003302
1772267904884,-35.559523,-101.766302,-62.482345,-9.145481
1772267904888,-4.497830,-117.911842,-90.256589,-15.109473
1772267904892,0.486025,-174.845360,-140.920712,-21.549643
1772267904895,-33.154143,-209.045061,-154.233487,-13.923741
1772267904899,-70.283774,-104.018918,-46.122371,11.691218
1772267904903,-28.095679,62.696014,75.944448,-1.668203
1772267904907,-27.371858,93.125790,107.469296,1.566603
1772267904911,-33.208240,58.487265,74.803879,0.408087
1772267904915,-36.432704,56.505076,67.768686,-0.008640
1772267904919,-30.645910,48.263204,56.052979,1.120438
1772267904923,-17.093217,3.286834,11.740319,-5.273939
1772267904927,-14.249244,-30.456457,-17.094522,-9.108655
1772267904931,-36.379911,-61.444863,-31.206965,5.969833
1772267904934,-53.994698,-109.624722,-57.757722,24.397464
1772267904938,-40.993961,-154.993382,-104.936892,21.714978
1772267904942,-8.763187,-105.878484,-96.252925,-0.703718
1772267904946,-5.518293,-16.274901,-37.351085,-16.089329
1772267904903,-28.095679,62.696014,75.944448,-1.668203
1772267904907,-27.371858,93.125790,107.469296,1.566603
1772267904911,-33.208240,58.487265,74.803879,0.408087
1772267904915,-36.432704,56.505076,67.768686,-0.008640
1772267904919,-30.645910,48.263204,56.052979,1.120438
1772267904923,-17.093217,3.286834,11.740319,-5.273939
1772267904927,-14.249244,-30.456457,-17.094522,-9.108655
1772267904931,-36.379911,-61.444863,-31.206965,5.969833
1772267904934,-53.994698,-109.624722,-57.757722,24.397464
1772267904938,-40.993961,-154.993382,-104.936892,21.714978
1772267904942,-8.763187,-105.878484,-96.252925,-0.703718
1772267904946,-5.518293,-16.274901,-37.351085,-16.089329
1772267904950,-36.487239,70.103363,54.592461,2.376934
1772267904954,-36.362400,116.713081,96.116241,-9.797344
1772267904958,-28.078889,167.211935,137.103854,-13.273698
1772267904962,-23.514085,114.861304,92.942533,-7.019072
1772267904966,-28.214841,1.860343,5.762130,-0.485188
1772267904970,-36.652500,-70.453642,-50.637071,1.540539
1772267904974,-31.496292,-46.093198,-38.803698,-9.401852
1772267904977,-22.077437,-69.450094,-67.768616,-24.685690
1772267904981,-31.091411,-267.507365,-224.964397,-22.586673
1772267904985,-53.405528,-349.905441,-272.522824,-3.072494
1772267904989,-60.918243,-107.535510,-63.478107,10.165797
1772267904993,-29.005969,200.720995,171.445208,-7.170637
1772267904950,-36.487239,70.103363,54.592461,2.376934
1772267904954,-36.362400,116.713081,96.116241,-9.797344
1772267904958,-28.078889,167.211935,137.103854,-13.273698
1772267904962,-23.514085,114.861304,92.942533,-7.019072
1772267904966,-28.214841,1.860343,5.762130,-0.485188
1772267904970,-36.652500,-70.453642,-50.637071,1.540539
1772267904974,-31.496292,-46.093198,-38.803698,-9.401852
1772267904977,-22.077437,-69.450094,-67.768616,-24.685690
1772267904981,-31.091411,-267.507365,-224.964397,-22.586673
1772267904985,-53.405528,-349.905441,-272.522824,-3.072494
1772267904989,-60.918243,-107.535510,-63.478107,10.165797
1772267904993,-29.005969,200.720995,171.445208,-7.170637
1772267904950,-36.487239,70.103363,54.592461,2.376934
1772267904954,-36.362400,116.713081,96.116241,-9.797344
1772267904958,-28.078889,167.211935,137.103854,-13.273698
1772267904962,-23.514085,114.861304,92.942533,-7.019072
1772267904966,-28.214841,1.860343,5.762130,-0.485188
1772267904970,-36.652500,-70.453642,-50.637071,1.540539
1772267904974,-31.496292,-46.093198,-38.803698,-9.401852
1772267904977,-22.077437,-69.450094,-67.768616,-24.685690
1772267904981,-31.091411,-267.507365,-224.964397,-22.586673
1772267904985,-53.405528,-349.905441,-272.522824,-3.072494
1772267904989,-60.918243,-107.535510,-63.478107,10.165797
1772267904993,-29.005969,200.720995,171.445208,-7.170637
1772267904950,-36.487239,70.103363,54.592461,2.376934
1772267904954,-36.362400,116.713081,96.116241,-9.797344
1772267904958,-28.078889,167.211935,137.103854,-13.273698
1772267904962,-23.514085,114.861304,92.942533,-7.019072
1772267904966,-28.214841,1.860343,5.762130,-0.485188
1772267904970,-36.652500,-70.453642,-50.637071,1.540539
1772267904974,-31.496292,-46.093198,-38.803698,-9.401852
1772267904977,-22.077437,-69.450094,-67.768616,-24.685690
1772267904981,-31.091411,-267.507365,-224.964397,-22.586673
1772267904985,-53.405528,-349.905441,-272.522824,-3.072494
1772267904989,-60.918243,-107.535510,-63.478107,10.165797
1772267904993,-29.005969,200.720995,171.445208,-7.170637
1772267904950,-36.487239,70.103363,54.592461,2.376934
1772267904954,-36.362400,116.713081,96.116241,-9.797344
1772267904958,-28.078889,167.211935,137.103854,-13.273698
1772267904962,-23.514085,114.861304,92.942533,-7.019072
1772267904966,-28.214841,1.860343,5.762130,-0.485188
1772267904970,-36.652500,-70.453642,-50.637071,1.540539
1772267904974,-31.496292,-46.093198,-38.803698,-9.401852
1772267904977,-22.077437,-69.450094,-67.768616,-24.685690
1772267904981,-31.091411,-267.507365,-224.964397,-22.586673
1772267904985,-53.405528,-349.905441,-272.522824,-3.072494
1772267904989,-60.918243,-107.535510,-63.478107,10.165797
1772267904993,-29.005969,200.720995,171.445208,-7.170637
1772267904950,-36.487239,70.103363,54.592461,2.376934
1772267904954,-36.362400,116.713081,96.116241,-9.797344
1772267904958,-28.078889,167.211935,137.103854,-13.273698
1772267904962,-23.514085,114.861304,92.942533,-7.019072
1772267904966,-28.214841,1.860343,5.762130,-0.485188
1772267904970,-36.652500,-70.453642,-50.637071,1.540539
1772267904974,-31.496292,-46.093198,-38.803698,-9.401852
1772267904977,-22.077437,-69.450094,-67.768616,-24.685690
1772267904981,-31.091411,-267.507365,-224.964397,-22.586673
1772267904985,-53.405528,-349.905441,-272.522824,-3.072494
1772267904989,-60.918243,-107.535510,-63.478107,10.165797
1772267904993,-29.005969,200.720995,171.445208,-7.170637
1772267904997,-38.544061,24.014516,23.356372,-9.886850
1772267905001,-37.894430,53.403228,41.980541,-10.304424
1772267905005,-31.603015,183.222934,146.145123,-11.058990
1772267905009,-24.398814,178.399573,141.049971,-8.046134
1772267905013,-19.992812,8.839236,3.067327,-3.550536
1772267905016,-25.525558,-109.209200,-83.996687,7.092782
1772267905020,-38.095176,-98.798208,-63.373688,19.814167
1772267905024,-27.802522,-23.583549,0.403737,17.843167
1772267905028,1.314193,-4.485896,2.749899,2.293343
1772267905032,13.733725,-87.252745,-78.363518,-9.306068
1772267905036,-11.672999,-188.993954,-151.036285,-0.445313
1772267905040,-52.771327,-143.763040,-89.697153,24.636617
1772267904997,-38.544061,24.014516,23.356372,-9.886850
1772267905001,-37.894430,53.403228,41.980541,-10.304424
1772267905005,-31.603015,183.222934,146.145123,-11.058990
1772267905009,-24.398814,178.399573,141.049971,-8.046134
1772267905013,-19.992812,8.839236,3.067327,-3.550536
1772267905016,-25.525558,-109.209200,-83.996687,7.092782
1772267905020,-38.095176,-98.798208,-63.373688,19.814167
1772267905024,-27.802522,-23.583549,0.403737,17.843167
1772267905028,1.314193,-4.485896,2.749899,2.293343
1772267905032,13.733725,-87.252745,-78.363518,-9.306068
1772267905036,-11.672999,-188.993954,-151.036285,-0.445313
1772267905040,-52.771327,-143.763040,-89.697153,24.636617
1772267905044,-15.743719,9.787537,15.698440,11.826318
1772267905048,-12.384319,88.007260,80.716848,13.362755
1772267905052,-9.029219,147.988295,129.053503,7.351822
1772267905056,-6.694746,98.906769,87.739361,-1.965337
1772267905059,-2.847113,35.128989,31.635606,-6.897045
1772267905063,9.949707,25.775957,17.944187,-9.040829
1772267905067,13.987921,-53.031610,-44.858473,-12.351889
1772267905071,-7.994579,-241.833251,-183.988467,-10.722931
1772267905075,-29.741224,-236.251022,-163.458031,-4.212792
1772267905079,-20.316615,4.229906,27.253538,-8.108289
1772267905083,19.463488,135.180097,110.891435,-22.732746
1772267905087,36.618694,72.590949,50.878758,-20.760176
1772267905044,-15.743719,9.787537,15.698440,11.826318
1772267905048,-12.384319,88.007260,80.716848,13.362755
1772267905052,-9.029219,147.988295,129.053503,7.351822
1772267905056,-6.694746,98.906769,87.739361,-1.965337
1772267905059,-2.847113,35.128989,31.635606,-6.897045
1772267905063,9.949707,25.775957,17.944187,-9.040829
1772267905067,13.987921,-53.031610,-44.858473,-12.351889
1772267905071,-7.994579,-241.833251,-183.988467,-10.722931
1772267905075,-29.741224,-236.251022,-163.458031,-4.212792
1772267905079,-20.316615,4.229906,27.253538,-8.108289
1772267905083,19.463488,135.180097,110.891435,-22.732746
1772267905087,36.618694,72.590949,50.878758,-20.760176
1772267905138,9.182177,-48.652765,-56.492213,5.747812
1772267905141,9.693591,-68.587378,-70.767557,9.120245
1772267905145,12.075799,-157.771201,-135.554631,10.460796
1772267905149,13.284149,-164.349232,-133.369690,10.156776
1772267905153,11.336578,-4.615487,-5.544147,5.288016
1772267905157,1.427829,94.903297,69.985041,4.766811
1772267905161,-10.556392,-12.920807,-16.366076,15.741530
1772267905165,-0.105860,-74.832097,-65.623748,22.677495
1772267905169,27.993215,44.011448,17.941120,13.046458
1772267905173,42.704380,84.080442,35.066878,-3.883240
1772267905177,16.036377,-149.381379,-150.129912,-6.136764
1772267905181,-31.431932,-328.220896,-274.322477,13.147051
1772267905184,-0.431007,-28.381497,-44.740215,6.195605
1772267905188,0.173576,71.585890,40.681681,17.615344
1772267905192,0.501163,-13.430477,-24.885651,19.991152
1772267905196,2.023704,-34.496151,-39.564286,12.852460
1772267905200,7.198290,77.668818,49.271383,6.245989
1772267905204,20.903218,145.867174,96.802187,-4.022504
1772267905208,26.662905,-4.873258,-31.663396,-13.048655
1772267905212,7.275100,-224.308796,-205.337934,-7.618658
1772267905216,-18.632627,-196.223900,-168.494737,8.727670
1772267905220,-17.277388,-9.189291,-12.981482,13.006251
1772267905223,18.663987,108.692493,64.952141,-10.533412
1772267905227,36.154042,99.815183,43.321055,-35.819690
1772267905138,9.182177,-48.652765,-56.492213,5.747812
1772267905141,9.693591,-68.587378,-70.767557,9.120245
1772267905145,12.075799,-157.771201,-135.554631,10.460796
1772267905149,13.284149,-164.349232,-133.369690,10.156776
1772267905153,11.336578,-4.615487,-5.544147,5.288016
1772267905157,1.427829,94.903297,69.985041,4.766811
1772267905161,-10.556392,-12.920807,-16.366076,15.741530
1772267905165,-0.105860,-74.832097,-65.623748,22.677495
1772267905169,27.993215,44.011448,17.941120,13.046458
1772267905173,42.704380,84.080442,35.066878,-3.883240
1772267905177,16.036377,-149.381379,-150.129912,-6.136764
1772267905181,-31.431932,-328.220896,-274.322477,13.147051
1772267905184,-0.431007,-28.381497,-44.740215,6.195605
1772267905188,0.173576,71.585890,40.681681,17.615344
1772267905192,0.501163,-13.430477,-24.885651,19.991152
1772267905196,2.023704,-34.496151,-39.564286,12.852460
1772267905200,7.198290,77.668818,49.271383,6.245989
1772267905204,20.903218,145.867174,96.802187,-4.022504
1772267905208,26.662905,-4.873258,-31.663396,-13.048655
1772267905212,7.275100,-224.308796,-205.337934,-7.618658
1772267905216,-18.632627,-196.223900,-168.494737,8.727670
1772267905220,-17.277388,-9.189291,-12.981482,13.006251
1772267905223,18.663987,108.692493,64.952141,-10.533412
1772267905227,36.154042,99.815183,43.321055,-35.819690
1772267905231,-4.160037,202.943810,152.678159,-14.861855
1772267905235,-10.659942,191.762354,143.721821,-12.962966
1772267905239,-10.821909,109.996257,74.718297,-7.695311
1772267905243,-9.381977,124.347297,88.872465,-1.161278
1772267905247,-16.305291,193.823837,154.842703,1.715838
1772267905251,-26.998593,174.751472,143.076532,-5.836499
1772267905255,-22.221765,68.742655,47.287550,-25.665701
1772267905259,-9.779227,-62.747098,-74.448014,-38.511242
1772267905263,-6.291199,-193.355552,-181.194807,-28.315452
1772267905266,-20.554074,-276.332317,-228.862587,-1.270970
1772267905270,-36.140620,-160.031668,-117.717342,22.704170
1772267905274,-9.920462,165.420371,138.761617,16.495000
1772267905231,-4.160037,202.943810,152.678159,-14.861855
1772267905235,-10.659942,191.762354,143.721821,-12.962966
1772267905239,-10.821909,109.996257,74.718297,-7.695311
1772267905243,-9.381977,124.347297,88.872465,-1.161278
1772267905247,-16.305291,193.823837,154.842703,1.715838
1772267905251,-26.998593,174.751472,143.076532,-5.836499
1772267905255,-22.221765,68.742655,47.287550,-25.665701
1772267905259,-9.779227,-62.747098,-74.448014,-38.511242
1772267905263,-6.291199,-193.355552,-181.194807,-28.315452
1772267905266,-20.554074,-276.332317,-228.862587,-1.270970
1772267905270,-36.140620,-160.031668,-117.717342,22.704170
1772267905274,-9.920462,165.420371,138.761617,16.495000
1772267905278,5.140302,197.403785,153.104533,2.555750
1772267905282,8.539226,213.847765,155.146038,-2.289276
1772267905286,2.659758,203.203727,129.115880,-9.435952
1772267905290,-4.287532,196.688388,106.297438,-19.633534
1772267905294,3.576783,133.981331,41.478965,-26.573839
1772267905298,7.047627,46.699462,-30.116939,-14.645165
1772267905302,-9.000223,9.622253,-47.427489,10.325651
1772267905306,-14.532969,68.944434,9.764301,26.373572
1772267905309,6.299800,71.780729,2.011170,26.784689
1772267905313,33.672783,-25.849366,-92.758302,17.377645
1772267905317,29.224882,-20.108944,-81.612113,15.554673
1772267905321,-4.356793,109.720642,51.849615,31.034590
1772267905278,5.140302,197.403785,153.104533,2.555750
1772267905282,8.539226,213.847765,155.146038,-2.289276
1772267905286,2.659758,203.203727,129.115880,-9.435952
1772267905290,-4.287532,196.688388,106.297438,-19.633534
1772267905294,3.576783,133.981331,41.478965,-26.573839
1772267905298,7.047627,46.699462,-30.116939,-14.645165
1772267905302,-9.000223,9.622253,-47.427489,10.325651
1772267905306,-14.532969,68.944434,9.764301,26.373572
1772267905309,6.299800,71.780729,2.011170,26.784689
1772267905313,33.672783,-25.849366,-92.758302,17.377645
1772267905317,29.224882,-20.108944,-81.612113,15.554673
1772267905321,-4.356793,109.720642,51.849615,31.034590
1772267905325,36.913769,185.317219,91.032835,9.207638
1772267905329,40.473933,165.617250,68.913151,-4.272943
1772267905333,36.671088,235.843029,126.475059,-15.211127
1772267905337,28.897240,271.465675,164.820658,-15.321996
1772267905341,25.390302,173.842715,92.063400,-12.398512
1772267905345,38.930570,63.605219,-0.480097,-19.723591
1772267905348,46.059493,23.818563,-33.652844,-26.827796
1772267905352,26.739835,-16.999271,-49.045521,-17.103569
1772267905356,-0.464892,-128.177991,-113.602949,3.569474
1772267905360,-1.511953,-195.680349,-168.885519,11.874196
1772267905364,35.878577,-85.520471,-106.697219,-6.419259
1772267905368,60.737491,33.930462,-22.772422,-22.968072
1772267905372,28.465370,17.585453,1.372353,17.456993
1772267905376,36.717390,61.798168,40.018000,28.890923
1772267905380,36.202558,136.881025,100.130447,27.556246
1772267905384,31.802666,81.472676,57.441503,22.844911
1772267905388,23.654014,-35.120945,-27.939771,29.081118
1772267905391,12.398571,-75.495585,-54.747153,37.763304
1772267905395,15.006296,-39.069780,-32.944554,27.459116
1772267905399,27.549451,-95.294954,-95.077580,2.785934
1772267905403,30.019222,-235.635484,-208.983734,-11.299889
1772267905407,3.826017,-238.049137,-181.684696,0.620696
1772267905411,-28.178570,-76.595296,-21.606385,23.002152
1772267905415,-10.459327,142.723033,148.959354,19.547510
1772267905466,-9.119492,33.149947,35.937645,-15.168717
1772267905470,-14.181835,82.820284,80.759432,-7.707028
1772267905473,-8.833540,82.115878,85.756640,-0.114783
1772267905477,-4.849937,2.754695,26.663337,8.696355
1772267905481,-7.640665,-40.886984,-6.416684,13.255961
1772267905485,4.966741,-3.996013,24.176103,7.079816
1772267905489,17.250579,-87.799494,-44.158449,-1.383362
1772267905493,-4.034351,-268.298432,-187.659325,-3.157565
1772267905497,-44.765678,-222.867944,-143.248989,-2.191178
1772267905501,-45.815145,4.308073,39.626100,-4.239013
1772267905505,15.516214,143.112138,133.657364,-11.561439
1772267905509,63.527054,136.149437,112.704603,-16.733819
1772267905466,-9.119492,33.149947,35.937645,-15.168717
1772267905470,-14.181835,82.820284,80.759432,-7.707028
1772267905473,-8.833540,82.115878,85.756640,-0.114783
1772267905477,-4.849937,2.754695,26.663337,8.696355
1772267905481,-7.640665,-40.886984,-6.416684,13.255961
1772267905485,4.966741,-3.996013,24.176103,7.079816
1772267905489,17.250579,-87.799494,-44.158449,-1.383362
1772267905493,-4.034351,-268.298432,-187.659325,-3.157565
1772267905497,-44.765678,-222.867944,-143.248989,-2.191178
1772267905501,-45.815145,4.308073,39.626100,-4.239013
1772267905505,15.516214,143.112138,133.657364,-11.561439
1772267905509,63.527054,136.149437,112.704603,-16.733819
1772267905513,10.270848,92.674776,114.068140,5.065293
1772267905516,-11.604461,136.352646,160.667616,3.560960
1772267905520,-8.226918,134.264816,155.761884,1.342983
1772267905524,4.359328,112.440706,129.327232,-11.753941
1772267905528,-7.982012,98.604136,113.161450,-30.997764
1772267905532,-31.341759,77.660003,104.580764,-25.904962
1772267905536,-33.241581,40.386724,89.490980,-0.547507
1772267905540,-19.630560,-19.733740,40.041768,10.059997
1772267905544,-3.287614,-22.099461,25.094619,0.689682
1772267905548,-1.035724,-27.425653,17.484005,-2.746074
1772267905552,-14.248746,-148.682229,-73.770801,4.779913
1772267905555,-17.646824,-141.532220,-62.028459,14.518407
1772267905559,-7.200831,63.489523,105.394173,23.696649
1772267905563,4.107781,139.121810,162.125996,16.037730
1772267905567,7.006627,43.075287,73.666751,-3.951838
1772267905571,10.386493,34.791276,57.665823,-6.151081
1772267905575,18.963922,155.501868,153.809034,6.514285
1772267905579,8.157490,148.399802,149.546764,6.059286
1772267905583,-12.171433,-55.246983,-12.179939,-7.449775
1772267905587,-13.627361,-182.367736,-113.047338,-9.296033
1772267905591,5.628342,-103.785974,-62.350412,-1.384477
1772267905595,39.003466,-23.003730,-20.343593,-3.402034
1772267905598,47.325555,-92.813439,-83.796911,-5.618487
1772267905602,11.249133,-172.690579,-128.024574,10.382154
1772267905606,24.919581,28.317851,23.612264,18.533864
1772267905610,-2.506841,70.598393,59.425458,24.810932
1772267905614,-16.114535,43.681632,36.402953,15.375324
1772267905618,-4.948158,69.351735,55.952655,12.238193
1772267905622,11.487417,98.793051,75.505712,21.229978
1772267905626,31.912876,66.389392,41.324173,25.210037
1772267905630,45.014467,-87.166379,-92.365681,18.746323
1772267905634,36.564244,-254.764733,-224.628096,19.822620
1772267905638,6.535500,-304.283188,-243.016606,28.650761
1772267905641,-13.568467,-295.011584,-225.234181,22.224206
1772267905645,13.656765,-178.781045,-150.278957,-1.013091
1772267905649,45.973732,-30.865792,-49.908413,-19.559540
1772267905513,10.270848,92.674776,114.068140,5.065293
1772267905516,-11.604461,136.352646,160.667616,3.560960
1772267905520,-8.226918,134.264816,155.761884,1.342983
1772267905524,4.359328,112.440706,129.327232,-11.753941
1772267905528,-7.982012,98.604136,113.161450,-30.997764
1772267905532,-31.341759,77.660003,104.580764,-25.904962
1772267905536,-33.241581,40.386724,89.490980,-0.547507
1772267905540,-19.630560,-19.733740,40.041768,10.059997
1772267905544,-3.287614,-22.099461,25.094619,0.689682
1772267905548,-1.035724,-27.425653,17.484005,-2.746074
1772267905552,-14.248746,-148.682229,-73.770801,4.779913
1772267905555,-17.646824,-141.532220,-62.028459,14.518407
1772267905559,-7.200831,63.489523,105.394173,23.696649
1772267905563,4.107781,139.121810,162.125996,16.037730
1772267905567,7.006627,43.075287,73.666751,-3.951838
1772267905571,10.386493,34.791276,57.665823,-6.151081
1772267905575,18.963922,155.501868,153.809034,6.514285
1772267905579,8.157490,148.399802,149.546764,6.059286
1772267905583,-12.171433,-55.246983,-12.179939,-7.449775
1772267905587,-13.627361,-182.367736,-113.047338,-9.296033
1772267905591,5.628342,-103.785974,-62.350412,-1.384477
1772267905595,39.003466,-23.003730,-20.343593,-3.402034
1772267905598,47.325555,-92.813439,-83.796911,-5.618487
1772267905602,11.249133,-172.690579,-128.024574,10.382154
1772267905606,24.919581,28.317851,23.612264,18.533864
1772267905610,-2.506841,70.598393,59.425458,24.810932
1772267905614,-16.114535,43.681632,36.402953,15.375324
1772267905618,-4.948158,69.351735,55.952655,12.238193
1772267905622,11.487417,98.793051,75.505712,21.229978
1772267905626,31.912876,66.389392,41.324173,25.210037
1772267905630,45.014467,-87.166379,-92.365681,18.746323
1772267905634,36.564244,-254.764733,-224.628096,19.822620
1772267905638,6.535500,-304.283188,-243.016606,28.650761
1772267905641,-13.568467,-295.011584,-225.234181,22.224206
1772267905645,13.656765,-178.781045,-150.278957,-1.013091
1772267905649,45.973732,-30.865792,-49.908413,-19.559540
1772267905559,-7.200831,63.489523,105.394173,23.696649
1772267905563,4.107781,139.121810,162.125996,16.037730
1772267905567,7.006627,43.075287,73.666751,-3.951838
1772267905571,10.386493,34.791276,57.665823,-6.151081
1772267905575,18.963922,155.501868,153.809034,6.514285
1772267905579,8.157490,148.399802,149.546764,6.059286
1772267905583,-12.171433,-55.246983,-12.179939,-7.449775
1772267905587,-13.627361,-182.367736,-113.047338,-9.296033
1772267905591,5.628342,-103.785974,-62.350412,-1.384477
1772267905595,39.003466,-23.003730,-20.343593,-3.402034
1772267905598,47.325555,-92.813439,-83.796911,-5.618487
1772267905602,11.249133,-172.690579,-128.024574,10.382154
1772267905606,24.919581,28.317851,23.612264,18.533864
1772267905610,-2.506841,70.598393,59.425458,24.810932
1772267905614,-16.114535,43.681632,36.402953,15.375324
1772267905618,-4.948158,69.351735,55.952655,12.238193
1772267905622,11.487417,98.793051,75.505712,21.229978
1772267905626,31.912876,66.389392,41.324173,25.210037
1772267905630,45.014467,-87.166379,-92.365681,18.746323
1772267905634,36.564244,-254.764733,-224.628096,19.822620
1772267905638,6.535500,-304.283188,-243.016606,28.650761
1772267905641,-13.568467,-295.011584,-225.234181,22.224206
1772267905645,13.656765,-178.781045,-150.278957,-1.013091
1772267905649,45.973732,-30.865792,-49.908413,-19.559540
1772267905653,-1.405808,15.305555,23.202569,1.407659
1772267905657,-1.441230,13.931137,27.457432,2.645543
1772267905661,7.275171,34.049215,47.662728,-1.619907
1772267905665,18.350006,83.846227,94.215710,-10.080719
1772267905669,6.140641,70.612441,94.488727,-10.081083
1772267905673,-15.252187,19.673271,64.334703,-1.458932
1772267905677,-18.593878,-1.255633,43.004667,-5.043136
1772267905680,3.674142,-41.419552,-11.452467,-20.547021
1772267905684,37.517653,-173.566606,-128.792306,-21.126690
1772267905688,30.180848,-315.019768,-223.911394,-0.209771
1772267905692,-10.023941,-217.630220,-115.583700,18.628627
1772267905696,-6.940808,75.444583,127.222284,21.843696
1772267905653,-1.405808,15.305555,23.202569,1.407659
1772267905657,-1.441230,13.931137,27.457432,2.645543
1772267905661,7.275171,34.049215,47.662728,-1.619907
1772267905665,18.350006,83.846227,94.215710,-10.080719
1772267905669,6.140641,70.612441,94.488727,-10.081083
1772267905673,-15.252187,19.673271,64.334703,-1.458932
1772267905677,-18.593878,-1.255633,43.004667,-5.043136
1772267905680,3.674142,-41.419552,-11.452467,-20.547021
1772267905684,37.517653,-173.566606,-128.792306,-21.126690
1772267905688,30.180848,-315.019768,-223.911394,-0.209771
1772267905692,-10.023941,-217.630220,-115.583700,18.628627
1772267905696,-6.940808,75.444583,127.222284,21.843696
1772267905700,14.384307,49.141666,92.934409,12.012589
1772267905704,10.538395,62.546203,102.234725,18.867404
1772267905708,12.209166,104.777367,131.728429,20.578921
1772267905712,20.855982,79.598761,106.096870,18.414369
1772267905716,29.251808,-7.290786,30.041897,5.873942
1772267905720,14.032651,-95.090760,-41.544797,-8.409355
1772267905723,-21.172607,-99.480436,-36.019604,-14.572573
1772267905727,-39.585884,-28.128198,29.735286,-14.280225
1772267905731,-15.862090,-49.774735,2.678384,-19.475974
1772267905735,30.041894,-128.290304,-83.605048,-36.784926
1772267905739,38.306235,-132.263581,-94.610044,-40.035466
1772267905743,-4.126927,-54.313781,-7.671681,-10.618274
1772267905700,14.384307,49.141666,92.934409,12.012589
1772267905704,10.538395,62.546203,102.234725,18.867404
1772267905708,12.209166,104.777367,131.728429,20.578921
1772267905712,20.855982,79.598761,106.096870,18.414369
1772267905716,29.251808,-7.290786,30.041897,5.873942
1772267905720,14.032651,-95.090760,-41.544797,-8.409355
1772267905723,-21.172607,-99.480436,-36.019604,-14.572573
1772267905727,-39.585884,-28.128198,29.735286,-14.280225
1772267905731,-15.862090,-49.774735,2.678384,-19.475974
1772267905735,30.041894,-128.290304,-83.605048,-36.784926
1772267905739,38.306235,-132.263581,-94.610044,-40.035466
1772267905743,-4.126927,-54.313781,-7.671681,-10.618274
1772267905700,14.384307,49.141666,92.934409,12.012589
1772267905704,10.538395,62.546203,102.234725,18.867404
1772267905708,12.209166,104.777367,131.728429,20.578921
1772267905712,20.855982,79.598761,106.096870,18.414369
1772267905716,29.251808,-7.290786,30.041897,5.873942
1772267905720,14.032651,-95.090760,-41.544797,-8.409355
1772267905723,-21.172607,-99.480436,-36.019604,-14.572573
1772267905727,-39.585884,-28.128198,29.735286,-14.280225
1772267905731,-15.862090,-49.774735,2.678384,-19.475974
1772267905735,30.041894,-128.290304,-83.605048,-36.784926
1772267905739,38.306235,-132.263581,-94.610044,-40.035466
1772267905743,-4.126927,-54.313781,-7.671681,-10.618274
1772267905700,14.384307,49.141666,92.934409,12.012589
1772267905704,10.538395,62.546203,102.234725,18.867404
1772267905708,12.209166,104.777367,131.728429,20.578921
1772267905712,20.855982,79.598761,106.096870,18.414369
1772267905716,29.251808,-7.290786,30.041897,5.873942
1772267905720,14.032651,-95.090760,-41.544797,-8.409355
1772267905723,-21.172607,-99.480436,-36.019604,-14.572573
1772267905727,-39.585884,-28.128198,29.735286,-14.280225
1772267905731,-15.862090,-49.774735,2.678384,-19.475974
1772267905735,30.041894,-128.290304,-83.605048,-36.784926
1772267905739,38.306235,-132.263581,-94.610044,-40.035466
1772267905743,-4.126927,-54.313781,-7.671681,-10.618274
1772267905841,-16.920630,53.681172,42.875731,10.776427
1772267905845,-13.942500,110.149140,84.291872,-0.396638
1772267905848,-13.032141,153.701999,120.344498,-7.154149
1772267905852,1.221802,114.465320,89.753079,4.028007
1772267905856,22.853704,59.144687,40.078033,13.844867
1772267905860,24.382431,-20.053508,-26.096715,18.082671
1772267905864,5.350396,-158.106686,-127.895781,27.879120
1772267905868,-17.981390,-232.114246,-178.009154,37.873820
1772267905872,-15.416598,-108.135871,-86.946304,25.646182
1772267905876,18.358269,40.447763,10.525332,-7.710146
1772267905880,31.516929,-25.611969,-48.768720,-24.236062
1772267905884,5.935274,-119.666907,-95.918860,-0.707103
1772267905841,-16.920630,53.681172,42.875731,10.776427
1772267905845,-13.942500,110.149140,84.291872,-0.396638
1772267905848,-13.032141,153.701999,120.344498,-7.154149
1772267905852,1.221802,114.465320,89.753079,4.028007
1772267905856,22.853704,59.144687,40.078033,13.844867
1772267905860,24.382431,-20.053508,-26.096715,18.082671
1772267905864,5.350396,-158.106686,-127.895781,27.879120
1772267905868,-17.981390,-232.114246,-178.009154,37.873820
1772267905872,-15.416598,-108.135871,-86.946304,25.646182
1772267905876,18.358269,40.447763,10.525332,-7.710146
1772267905880,31.516929,-25.611969,-48.768720,-24.236062
1772267905884,5.935274,-119.666907,-95.918860,-0.707103
1772267905887,19.853069,41.134956,27.560174,6.750607
1772267905891,7.110260,23.842503,12.890806,6.000641
1772267905895,0.244456,-25.902105,-26.849401,-2.985833
1772267905899,-1.289635,-31.994319,-27.049845,2.497914
1772267905903,-3.907466,52.600313,41.795630,5.962332
1772267905907,-3.118186,120.664237,89.615575,-5.325807
1772267905911,0.072983,-16.189624,-28.399667,-12.985691
1772267905915,2.174072,-227.536347,-193.118390,-7.177222
1772267905919,-14.268505,-215.863545,-163.282288,5.225813
1772267905923,-29.321953,-39.121205,-10.597428,8.451836
1772267905927,-6.265458,23.668677,17.157795,-11.669636
1772267905930,26.776761,-63.958594,-85.820429,-37.495349
1772267905887,19.853069,41.134956,27.560174,6.750607
1772267905891,7.110260,23.842503,12.890806,6.000641
1772267905895,0.244456,-25.902105,-26.849401,-2.985833
1772267905899,-1.289635,-31.994319,-27.049845,2.497914
1772267905903,-3.907466,52.600313,41.795630,5.962332
1772267905907,-3.118186,120.664237,89.615575,-5.325807
1772267905911,0.072983,-16.189624,-28.399667,-12.985691
1772267905915,2.174072,-227.536347,-193.118390,-7.177222
1772267905919,-14.268505,-215.863545,-163.282288,5.225813
1772267905923,-29.321953,-39.121205,-10.597428,8.451836
1772267905927,-6.265458,23.668677,17.157795,-11.669636
1772267905930,26.776761,-63.958594,-85.820429,-37.495349
1772267905887,19.853069,41.134956,27.560174,6.750607
1772267905891,7.110260,23.842503,12.890806,6.000641
1772267905895,0.244456,-25.902105,-26.849401,-2.985833
1772267905899,-1.289635,-31.994319,-27.049845,2.497914
1772267905903,-3.907466,52.600313,41.795630,5.962332
1772267905907,-3.118186,120.664237,89.615575,-5.325807
1772267905911,0.072983,-16.189624,-28.399667,-12.985691
1772267905915,2.174072,-227.536347,-193.118390,-7.177222
1772267905919,-14.268505,-215.863545,-163.282288,5.225813
1772267905923,-29.321953,-39.121205,-10.597428,8.451836
1772267905927,-6.265458,23.668677,17.157795,-11.669636
1772267905930,26.776761,-63.958594,-85.820429,-37.495349
1772267905887,19.853069,41.134956,27.560174,6.750607
1772267905891,7.110260,23.842503,12.890806,6.000641
1772267905895,0.244456,-25.902105,-26.849401,-2.985833
1772267905899,-1.289635,-31.994319,-27.049845,2.497914
1772267905903,-3.907466,52.600313,41.795630,5.962332
1772267905907,-3.118186,120.664237,89.615575,-5.325807
1772267905911,0.072983,-16.189624,-28.399667,-12.985691
1772267905915,2.174072,-227.536347,-193.118390,-7.177222
1772267905919,-14.268505,-215.863545,-163.282288,5.225813
1772267905923,-29.321953,-39.121205,-10.597428,8.451836
1772267905927,-6.265458,23.668677,17.157795,-11.669636
1772267905930,26.776761,-63.958594,-85.820429,-37.495349
1772267905934,-9.473458,-14.337544,-11.748881,-9.089678
1772267905938,-9.809859,-32.861380,-23.399630,0.748526
1772267905942,-10.508067,-115.632545,-89.981541,7.914698
1772267905946,-5.589558,-40.185611,-31.976397,9.197784
1772267905950,-6.772478,83.772247,68.553310,9.995684
1772267905954,-18.549248,76.931927,70.954277,10.613653
1772267905958,-25.324010,-69.950179,-46.291878,7.094756
1772267905962,-10.734704,-193.737577,-161.500018,-7.668045
1772267905966,8.634433,-154.101814,-141.263729,-30.730428
1772267905970,-6.475053,-112.409085,-90.088086,-33.363182
1772267905973,-38.045059,-122.417415,-59.839924,-7.358744
1772267905977,-37.433399,-29.590393,27.587808,6.141059
1772267905934,-9.473458,-14.337544,-11.748881,-9.089678
1772267905938,-9.809859,-32.861380,-23.399630,0.748526
1772267905942,-10.508067,-115.632545,-89.981541,7.914698
1772267905946,-5.589558,-40.185611,-31.976397,9.197784
1772267905950,-6.772478,83.772247,68.553310,9.995684
1772267905954,-18.549248,76.931927,70.954277,10.613653
1772267905958,-25.324010,-69.950179,-46.291878,7.094756
1772267905962,-10.734704,-193.737577,-161.500018,-7.668045
1772267905966,8.634433,-154.101814,-141.263729,-30.730428
1772267905970,-6.475053,-112.409085,-90.088086,-33.363182
1772267905973,-38.045059,-122.417415,-59.839924,-7.358744
1772267905977,-37.433399,-29.590393,27.587808,6.141059
1772267905981,7.474433,80.872627,73.672090,-30.682359
1772267905985,3.803961,93.976443,79.250353,-32.288629
1772267905989,-11.246046,41.411899,52.485961,-7.496859
1772267905993,-17.258981,48.160352,75.360795,17.310787
1772267905997,-10.049115,70.705164,88.830223,17.708438
1772267906001,-3.390213,7.367132,15.388781,1.041507
1772267906005,-1.278404,-106.195342,-86.728249,-7.387882
1772267906009,-9.557162,-120.798119,-85.952400,1.534937
1772267906012,-19.236586,-53.935985,-16.672338,12.090345
1772267906016,-16.492128,-81.857778,-39.875282,11.114076
1772267906020,-11.323195,-129.035499,-87.141626,3.349394
1772267906024,-6.070951,-31.087832,-10.185074,-0.099230
1772267906028,-3.609318,68.165996,74.099400,4.735294
1772267906032,-5.754720,96.598337,99.089034,8.237575
1772267906036,-6.475444,157.541716,145.943975,4.127258
1772267906040,-12.704128,160.514493,145.116921,0.577204
1772267906044,-16.981245,41.522395,46.589200,-1.479359
1772267906048,-9.462220,-63.710959,-46.502377,-5.755308
1772267906052,2.086542,-74.004268,-66.616705,-10.430887
1772267906055,1.514897,-55.779300,-50.226102,-11.644474
1772267906059,-23.093780,-113.218485,-78.531719,0.522094
1772267906063,-33.579906,-155.526900,-100.222131,17.049415
1772267906067,2.084392,-31.786109,-16.344457,10.288340
1772267906071,46.059946,131.481868,84.316026,-18.945830
1772267905981,7.474433,80.872627,73.672090,-30.682359
1772267905985,3.803961,93.976443,79.250353,-32.288629
1772267905989,-11.246046,41.411899,52.485961,-7.496859
1772267905993,-17.258981,48.160352,75.360795,17.310787
1772267905997,-10.049115,70.705164,88.830223,17.708438
1772267906001,-3.390213,7.367132,15.388781,1.041507
1772267906005,-1.278404,-106.195342,-86.728249,-7.387882
1772267906009,-9.557162,-120.798119,-85.952400,1.534937
1772267906012,-19.236586,-53.935985,-16.672338,12.090345
1772267906016,-16.492128,-81.857778,-39.875282,11.114076
1772267906020,-11.323195,-129.035499,-87.141626,3.349394
1772267906024,-6.070951,-31.087832,-10.185074,-0.099230
1772267906028,-3.609318,68.165996,74.099400,4.735294
1772267906032,-5.754720,96.598337,99.089034,8.237575
1772267906036,-6.475444,157.541716,145.943975,4.127258
1772267906040,-12.704128,160.514493,145.116921,0.577204
1772267906044,-16.981245,41.522395,46.589200,-1.479359
1772267906048,-9.462220,-63.710959,-46.502377,-5.755308
1772267906052,2.086542,-74.004268,-66.616705,-10.430887
1772267906055,1.514897,-55.779300,-50.226102,-11.644474
1772267906059,-23.093780,-113.218485,-78.531719,0.522094
1772267906063,-33.579906,-155.526900,-100.222131,17.049415
1772267906067,2.084392,-31.786109,-16.344457,10.288340
1772267906071,46.059946,131.481868,84.316026,-18.945830
1772267906075,10.454342,-44.175752,-28.565953,-4.271070
1772267906079,9.497218,-99.494386,-71.770145,-7.249054
1772267906083,8.828620,36.276603,38.299048,-9.544153
1772267906087,9.320891,144.702366,122.235252,-11.260567
1772267906091,-3.624178,39.467465,36.782794,-8.494692
1772267906094,-17.260593,-49.313566,-24.977417,0.675323
1772267906098,-12.875930,34.354854,48.833974,8.428322
1772267906102,11.263566,136.880109,117.643300,1.862534
1772267906106,33.565151,102.867176,71.417486,-12.291825
1772267906110,15.074667,-52.602967,-47.927461,-7.609237
1772267906114,-27.889336,-108.345933,-65.121802,19.176684
1772267906118,-37.921831,9.594517,37.695957,38.644484
1772267906075,10.454342,-44.175752,-28.565953,-4.271070
1772267906079,9.497218,-99.494386,-71.770145,-7.249054
1772267906083,8.828620,36.276603,38.299048,-9.544153
1772267906087,9.320891,144.702366,122.235252,-11.260567
1772267906091,-3.624178,39.467465,36.782794,-8.494692
1772267906094,-17.260593,-49.313566,-24.977417,0.675323
1772267906098,-12.875930,34.354854,48.833974,8.428322
1772267906102,11.263566,136.880109,117.643300,1.862534
1772267906106,33.565151,102.867176,71.417486,-12.291825
1772267906110,15.074667,-52.602967,-47.927461,-7.609237
1772267906114,-27.889336,-108.345933,-65.121802,19.176684
1772267906118,-37.921831,9.594517,37.695957,38.644484
1772267906169,2.580083,54.439846,22.335148,-10.114547
1772267906173,-2.487606,46.653146,14.935688,-6.468265
1772267906177,-3.410581,139.907999,92.079917,-5.400432
1772267906180,-5.341851,141.027259,97.655460,-2.153429
1772267906184,-3.458946,84.104483,57.098374,3.026584
1772267906188,5.510022,55.317195,32.086303,3.140462
1772267906192,14.216590,-51.100154,-63.607976,-2.905763
1772267906196,8.997031,-239.525957,-216.446024,-11.394512
1772267906200,-20.195510,-283.574797,-235.488747,-12.931639
1772267906204,-40.814633,-77.515039,-53.660225,-8.475617
1772267906208,-22.008030,147.470607,117.375886,-13.963402
1772267906212,16.452330,209.167139,134.273440,-33.312719
1772267906169,2.580083,54.439846,22.335148,-10.114547
1772267906173,-2.487606,46.653146,14.935688,-6.468265
1772267906177,-3.410581,139.907999,92.079917,-5.400432
1772267906180,-5.341851,141.027259,97.655460,-2.153429
1772267906184,-3.458946,84.104483,57.098374,3.026584
1772267906188,5.510022,55.317195,32.086303,3.140462
1772267906192,14.216590,-51.100154,-63.607976,-2.905763
1772267906196,8.997031,-239.525957,-216.446024,-11.394512
1772267906200,-20.195510,-283.574797,-235.488747,-12.931639
1772267906204,-40.814633,-77.515039,-53.660225,-8.475617
1772267906208,-22.008030,147.470607,117.375886,-13.963402
1772267906212,16.452330,209.167139,134.273440,-33.312719
1772267906216,-15.106947,122.178951,86.859351,-14.757924
1772267906219,-10.485414,158.680710,112.222544,-9.820372
1772267906223,-6.411429,124.476054,81.896100,-5.823185
1772267906227,-3.320669,51.932436,21.905853,-6.321448
1772267906231,-15.453687,11.094224,-8.359142,-4.612532
1772267906235,-30.725315,13.425751,5.725468,3.363732
1772267906239,-29.930662,-21.712770,-13.901061,12.212635
1772267906243,-5.682666,-47.031605,-45.694738,9.099658
1772267906247,20.086791,26.484873,-7.213483,-3.825576
1772267906251,5.062910,30.167034,-3.294789,-2.451021
1772267906255,-40.292153,-59.108461,-43.682911,19.371347
1772267906259,-62.074294,-1.228831,23.061828,34.263922
1772267906216,-15.106947,122.178951,86.859351,-14.757924
1772267906219,-10.485414,158.680710,112.222544,-9.820372
1772267906223,-6.411429,124.476054,81.896100,-5.823185
1772267906227,-3.320669,51.932436,21.905853,-6.321448
1772267906231,-15.453687,11.094224,-8.359142,-4.612532
1772267906235,-30.725315,13.425751,5.725468,3.363732
1772267906239,-29.930662,-21.712770,-13.901061,12.212635
1772267906243,-5.682666,-47.031605,-45.694738,9.099658
1772267906247,20.086791,26.484873,-7.213483,-3.825576
1772267906251,5.062910,30.167034,-3.294789,-2.451021
1772267906255,-40.292153,-59.108461,-43.682911,19.371347
1772267906259,-62.074294,-1.228831,23.061828,34.263922
1772267906262,-32.950666,106.033615,76.018303,-2.808297
1772267906266,-36.386972,101.991568,67.882205,-16.285311
1772267906270,-36.340192,2.555464,-14.320521,-21.093107
1772267906274,-24.975088,-23.395685,-32.600430,-17.533954
1772267906278,-8.260757,59.464185,34.372059,-16.881779
1772267906282,-1.236936,43.228261,21.184282,-18.085505
1772267906286,-4.731544,-100.436232,-82.912268,-11.239341
1772267906290,-18.586113,-173.019184,-124.016552,6.235050
1772267906294,-17.289606,-35.835319,-15.429825,14.055886
1772267906298,10.793794,133.587644,92.591789,-4.360766
1772267906301,28.709200,37.426527,-9.069654,-27.718259
1772267906305,6.431532,-188.533773,-176.635143,-20.720196
1772267906262,-32.950666,106.033615,76.018303,-2.808297
1772267906266,-36.386972,101.991568,67.882205,-16.285311
1772267906270,-36.340192,2.555464,-14.320521,-21.093107
1772267906274,-24.975088,-23.395685,-32.600430,-17.533954
1772267906278,-8.260757,59.464185,34.372059,-16.881779
1772267906282,-1.236936,43.228261,21.184282,-18.085505
1772267906286,-4.731544,-100.436232,-82.912268,-11.239341
1772267906290,-18.586113,-173.019184,-124.016552,6.235050
1772267906294,-17.289606,-35.835319,-15.429825,14.055886
1772267906298,10.793794,133.587644,92.591789,-4.360766
1772267906301,28.709200,37.426527,-9.069654,-27.718259
1772267906305,6.431532,-188.533773,-176.635143,-20.720196
1772267906309,-27.896956,-67.630740,-48.756456,9.982704
1772267906313,-17.306084,90.474848,68.577889,5.115671
1772267906317,7.648031,113.306424,70.215307,-6.476494
1772267906321,12.527912,98.683794,59.689290,-6.595904
1772267906325,-0.212869,107.882508,86.307141,6.866075
1772267906329,-8.240710,89.373185,86.723199,24.462921
1772267906333,1.530757,40.304350,46.866506,31.223408
1772267906337,18.503724,26.565143,28.323874,21.038284
1772267906341,18.130973,3.225509,8.255625,9.560130
1772267906344,7.767285,-98.059001,-67.999230,7.288929
1772267906348,1.085776,-169.873797,-125.902329,10.473038
1772267906352,0.021457,-40.878525,-29.875343,11.305221
1772267906356,6.019264,152.458559,116.711112,5.914678
1772267906360,12.516326,148.564424,106.317595,-0.184408
1772267906364,23.286748,72.993831,42.794040,-6.444835
1772267906368,32.121212,133.314872,92.976823,-13.037302
1772267906372,23.443397,238.199831,183.724679,-13.045119
1772267906376,7.375891,228.400499,187.393407,-5.062146
1772267906380,-0.089889,76.425102,68.132413,2.671619
1772267906384,19.743584,-28.575468,-32.697702,-1.033954
1772267906387,53.924721,-17.728325,-46.801387,-10.895006
1772267906391,49.516365,-107.747219,-125.537698,-7.248024
1772267906395,3.800408,-187.608779,-170.861889,16.656176
1772267906399,-24.988655,-57.901932,-50.569009,40.874638
1772267906403,14.876546,82.602520,28.251042,15.514642
1772267906407,16.602741,149.675586,76.044333,11.244606
1772267906411,8.540498,138.801858,60.179169,8.096560
1772267906415,3.930155,103.175168,21.500744,8.378895
1772267906419,13.330521,55.057827,-26.988438,3.703183
1772267906423,22.938432,-1.161411,-73.949619,-7.695953
1772267906426,19.121339,-57.104805,-109.695548,-8.838325
1772267906430,-0.016805,-101.781650,-131.665500,10.791780
1772267906434,-1.590945,-130.605316,-150.750933,28.146066
1772267906438,29.194163,-141.547237,-176.881148,18.477797
1772267906442,53.236384,-70.211017,-139.544373,-6.859812
1772267906446,32.827347,24.151922,-51.556718,-10.883474
1772267906309,-27.896956,-67.630740,-48.756456,9.982704
1772267906313,-17.306084,90.474848,68.577889,5.115671
1772267906317,7.648031,113.306424,70.215307,-6.476494
1772267906321,12.527912,98.683794,59.689290,-6.595904
1772267906325,-0.212869,107.882508,86.307141,6.866075
1772267906329,-8.240710,89.373185,86.723199,24.462921
1772267906333,1.530757,40.304350,46.866506,31.223408
1772267906337,18.503724,26.565143,28.323874,21.038284
1772267906341,18.130973,3.225509,8.255625,9.560130
1772267906344,7.767285,-98.059001,-67.999230,7.288929
1772267906348,1.085776,-169.873797,-125.902329,10.473038
1772267906352,0.021457,-40.878525,-29.875343,11.305221
1772267906356,6.019264,152.458559,116.711112,5.914678
1772267906360,12.516326,148.564424,106.317595,-0.184408
1772267906364,23.286748,72.993831,42.794040,-6.444835
1772267906368,32.121212,133.314872,92.976823,-13.037302
1772267906372,23.443397,238.199831,183.724679,-13.045119
1772267906376,7.375891,228.400499,187.393407,-5.062146
1772267906380,-0.089889,76.425102,68.132413,2.671619
1772267906384,19.743584,-28.575468,-32.697702,-1.033954
1772267906387,53.924721,-17.728325,-46.801387,-10.895006
1772267906391,49.516365,-107.747219,-125.537698,-7.248024
1772267906395,3.800408,-187.608779,-170.861889,16.656176
1772267906399,-24.988655,-57.901932,-50.569009,40.874638
1772267906403,14.876546,82.602520,28.251042,15.514642
1772267906407,16.602741,149.675586,76.044333,11.244606
1772267906411,8.540498,138.801858,60.179169,8.096560
1772267906415,3.930155,103.175168,21.500744,8.378895
1772267906419,13.330521,55.057827,-26.988438,3.703183
1772267906423,22.938432,-1.161411,-73.949619,-7.695953
1772267906426,19.121339,-57.104805,-109.695548,-8.838325
1772267906430,-0.016805,-101.781650,-131.665500,10.791780
1772267906434,-1.590945,-130.605316,-150.750933,28.146066
1772267906438,29.194163,-141.547237,-176.881148,18.477797
1772267906442,53.236384,-70.211017,-139.544373,-6.859812
1772267906446,32.827347,24.151922,-51.556718,-10.883474
1772267906356,6.019264,152.458559,116.711112,5.914678
1772267906360,12.516326,148.564424,106.317595,-0.184408
1772267906364,23.286748,72.993831,42.794040,-6.444835
1772267906368,32.121212,133.314872,92.976823,-13.037302
1772267906372,23.443397,238.199831,183.724679,-13.045119
1772267906376,7.375891,228.400499,187.393407,-5.062146
1772267906380,-0.089889,76.425102,68.132413,2.671619
1772267906384,19.743584,-28.575468,-32.697702,-1.033954
1772267906387,53.924721,-17.728325,-46.801387,-10.895006
1772267906391,49.516365,-107.747219,-125.537698,-7.248024
1772267906395,3.800408,-187.608779,-170.861889,16.656176
1772267906399,-24.988655,-57.901932,-50.569009,40.874638
1772267906403,14.876546,82.602520,28.251042,15.514642
1772267906407,16.602741,149.675586,76.044333,11.244606
1772267906411,8.540498,138.801858,60.179169,8.096560
1772267906415,3.930155,103.175168,21.500744,8.378895
1772267906419,13.330521,55.057827,-26.988438,3.703183
1772267906423,22.938432,-1.161411,-73.949619,-7.695953
1772267906426,19.121339,-57.104805,-109.695548,-8.838325
1772267906430,-0.016805,-101.781650,-131.665500,10.791780
1772267906434,-1.590945,-130.605316,-150.750933,28.146066
1772267906438,29.194163,-141.547237,-176.881148,18.477797
1772267906442,53.236384,-70.211017,-139.544373,-6.859812
1772267906446,32.827347,24.151922,-51.556718,-10.883474
1772267906497,10.169555,55.552256,-10.865801,10.481344
1772267906501,7.080229,115.123194,36.929486,5.468420
1772267906505,6.178850,215.198125,119.030102,2.793783
1772267906509,9.163804,144.456079,58.253158,1.376040
1772267906512,6.368024,-34.128904,-84.945245,3.041046
1772267906516,-1.205958,-65.785784,-94.680099,10.002384
1772267906520,-2.951972,24.272163,-5.950649,21.620840
1772267906524,18.345396,42.488908,1.847328,22.770696
1772267906528,42.544807,-63.036070,-108.586666,9.144625
1772267906532,29.090584,-158.753730,-191.620906,0.366574
1772267906536,-16.324432,-112.125646,-121.181674,9.311559
1772267906540,-49.135270,69.618939,56.574706,22.409552
1772267906497,10.169555,55.552256,-10.865801,10.481344
1772267906501,7.080229,115.123194,36.929486,5.468420
1772267906505,6.178850,215.198125,119.030102,2.793783
1772267906509,9.163804,144.456079,58.253158,1.376040
1772267906512,6.368024,-34.128904,-84.945245,3.041046
1772267906516,-1.205958,-65.785784,-94.680099,10.002384
1772267906520,-2.951972,24.272163,-5.950649,21.620840
1772267906524,18.345396,42.488908,1.847328,22.770696
1772267906528,42.544807,-63.036070,-108.586666,9.144625
1772267906532,29.090584,-158.753730,-191.620906,0.366574
1772267906536,-16.324432,-112.125646,-121.181674,9.311559
1772267906540,-49.135270,69.618939,56.574706,22.409552
1772267906497,10.169555,55.552256,-10.865801,10.481344
1772267906501,7.080229,115.123194,36.929486,5.468420
1772267906505,6.178850,215.198125,119.030102,2.793783
1772267906509,9.163804,144.456079,58.253158,1.376040
1772267906512,6.368024,-34.128904,-84.945245,3.041046
1772267906516,-1.205958,-65.785784,-94.680099,10.002384
1772267906520,-2.951972,24.272163,-5.950649,21.620840
1772267906524,18.345396,42.488908,1.847328,22.770696
1772267906528,42.544807,-63.036070,-108.586666,9.144625
1772267906532,29.090584,-158.753730,-191.620906,0.366574
1772267906536,-16.324432,-112.125646,-121.181674,9.311559
1772267906540,-49.135270,69.618939,56.574706,22.409552
1772267906497,10.169555,55.552256,-10.865801,10.481344
1772267906501,7.080229,115.123194,36.929486,5.468420
1772267906505,6.178850,215.198125,119.030102,2.793783
1772267906509,9.163804,144.456079,58.253158,1.376040
1772267906512,6.368024,-34.128904,-84.945245,3.041046
1772267906516,-1.205958,-65.785784,-94.680099,10.002384
1772267906520,-2.951972,24.272163,-5.950649,21.620840
1772267906524,18.345396,42.488908,1.847328,22.770696
1772267906528,42.544807,-63.036070,-108.586666,9.144625
1772267906532,29.090584,-158.753730,-191.620906,0.366574
1772267906536,-16.324432,-112.125646,-121.181674,9.311559
1772267906540,-49.135270,69.618939,56.574706,22.409552
1772267906497,10.169555,55.552256,-10.865801,10.481344
1772267906501,7.080229,115.123194,36.929486,5.468420
1772267906505,6.178850,215.198125,119.030102,2.793783
1772267906509,9.163804,144.456079,58.253158,1.376040
1772267906512,6.368024,-34.128904,-84.945245,3.041046
1772267906516,-1.205958,-65.785784,-94.680099,10.002384
1772267906520,-2.951972,24.272163,-5.950649,21.620840
1772267906524,18.345396,42.488908,1.847328,22.770696
1772267906528,42.544807,-63.036070,-108.586666,9.144625
1772267906532,29.090584,-158.753730,-191.620906,0.366574
1772267906536,-16.324432,-112.125646,-121.181674,9.311559
1772267906540,-49.135270,69.618939,56.574706,22.409552
1772267906497,10.169555,55.552256,-10.865801,10.481344
1772267906501,7.080229,115.123194,36.929486,5.468420
1772267906505,6.178850,215.198125,119.030102,2.793783
1772267906509,9.163804,144.456079,58.253158,1.376040
1772267906512,6.368024,-34.128904,-84.945245,3.041046
1772267906516,-1.205958,-65.785784,-94.680099,10.002384
1772267906520,-2.951972,24.272163,-5.950649,21.620840
1772267906524,18.345396,42.488908,1.847328,22.770696
1772267906528,42.544807,-63.036070,-108.586666,9.144625
1772267906532,29.090584,-158.753730,-191.620906,0.366574
1772267906536,-16.324432,-112.125646,-121.181674,9.311559
1772267906540,-49.135270,69.618939,56.574706,22.409552
1772267906591,-23.510430,164.594740,148.727475,-7.785789
1772267906594,-22.015169,208.047695,188.182749,-1.185154
1772267906598,-16.758387,191.553551,176.773423,6.169960
1772267906602,-17.216675,89.305065,95.154093,10.318830
1772267906606,-10.171937,56.128246,71.715723,11.697280
1772267906610,4.845501,76.677544,86.166228,12.173321
1772267906614,26.968373,-12.907827,1.282849,8.569856
1772267906618,38.802992,-187.590922,-152.277054,3.968491
1772267906622,17.406835,-230.210779,-179.045085,12.396392
1772267906626,-13.682937,-80.936829,-34.822312,29.891595
1772267906630,-16.553711,73.678699,90.162008,33.631504
