timestamp,TP9_uV,AF7_uV,AF8_uV,TP10_uV
1772265594942,-14.132503,-50.616862,-33.380945,1.635997
1772265594946,-7.476388,25.440307,29.197220,5.199145
1772265594950,-7.401747,-26.819828,-10.032786,5.806226
1772265594954,-16.614664,15.195175,16.730901,0.191044
1772265594958,-24.679107,150.648855,119.009908,-12.698757
1772265594961,-38.209842,103.140515,76.957578,-29.917870
1772265594965,-59.454317,-173.378809,-146.183340,-44.078156
1772265594969,-77.076565,-343.269996,-272.115568,-53.238097
1772265594973,-83.040749,-225.827740,-161.677051,-67.431467
1772265594977,-77.103352,-46.791646,-5.118882,-90.988386
1772265594981,-84.819079,-116.509272,-70.453168,-110.736504
1772265594985,-122.971812,-300.871351,-239.982141,-117.750750
1772265594942,-14.132503,-50.616862,-33.380945,1.635997
1772265594946,-7.476388,25.440307,29.197220,5.199145
1772265594950,-7.401747,-26.819828,-10.032786,5.806226
1772265594954,-16.614664,15.195175,16.730901,0.191044
1772265594958,-24.679107,150.648855,119.009908,-12.698757
1772265594961,-38.209842,103.140515,76.957578,-29.917870
1772265594965,-59.454317,-173.378809,-146.183340,-44.078156
1772265594969,-77.076565,-343.269996,-272.115568,-53.238097
1772265594973,-83.040749,-225.827740,-161.677051,-67.431467
1772265594977,-77.103352,-46.791646,-5.118882,-90.988386
1772265594981,-84.819079,-116.509272,-70.453168,-110.736504
1772265594985,-122.971812,-300.871351,-239.982141,-117.750750
1772265594989,-129.193302,21.039972,39.837427,-130.707447
1772265594993,-152.015062,109.629612,109.262590,-144.999968
1772265594997,-166.836815,99.463335,103.013558,-154.769230
1772265595000,-171.602131,79.161415,86.324635,-155.641036
1772265595004,-168.105279,23.298052,37.575565,-149.731256
1772265595008,-154.302787,-36.449035,-3.696139,-145.928936
1772265595012,-138.568388,-120.552233,-67.456482,-142.540126
1772265595016,-130.581735,-263.444877,-189.477005,-130.842288
1772265595020,-133.823139,-385.960737,-293.425111,-112.847772
1772265595024,-126.326830,-303.688554,-217.545178,-94.056131
1772265595028,-84.910785,37.655295,82.516487,-77.467881
1772265595032,-38.119105,268.130056,272.306005,-64.936453
1772265595036,-47.598461,67.458155,94.095130,-38.825801
1772265595040,-28.709086,-53.092097,4.824551,-22.386492
1772265595043,-13.844260,-96.444729,-27.241173,-8.965110
1772265595047,4.210153,15.817940,58.594785,2.979467
1772265595051,18.994936,30.752687,57.245730,18.938912
1772265595055,28.230774,-54.540408,-23.149863,38.247296
1772265595059,44.085749,-5.637546,24.998922,53.687772
1772265595063,70.572013,80.663780,109.783291,63.117178
1772265595067,93.636882,-25.189437,30.607351,71.503028
1772265595071,89.475212,-281.918292,-187.184863,87.477307
1772265595075,69.232252,-323.151677,-237.857273,110.561327
1772265595079,74.348491,41.341100,60.398030,124.439518
1772265594989,-129.193302,21.039972,39.837427,-130.707447
1772265594993,-152.015062,109.629612,109.262590,-144.999968
1772265594997,-166.836815,99.463335,103.013558,-154.769230
1772265595000,-171.602131,79.161415,86.324635,-155.641036
1772265595004,-168.105279,23.298052,37.575565,-149.731256
1772265595008,-154.302787,-36.449035,-3.696139,-145.928936
1772265595012,-138.568388,-120.552233,-67.456482,-142.540126
1772265595016,-130.581735,-263.444877,-189.477005,-130.842288
1772265595020,-133.823139,-385.960737,-293.425111,-112.847772
1772265595024,-126.326830,-303.688554,-217.545178,-94.056131
1772265595028,-84.910785,37.655295,82.516487,-77.467881
1772265595032,-38.119105,268.130056,272.306005,-64.936453
1772265595036,-47.598461,67.458155,94.095130,-38.825801
1772265595040,-28.709086,-53.092097,4.824551,-22.386492
1772265595043,-13.844260,-96.444729,-27.241173,-8.965110
1772265595047,4.210153,15.817940,58.594785,2.979467
1772265595051,18.994936,30.752687,57.245730,18.938912
1772265595055,28.230774,-54.540408,-23.149863,38.247296
1772265595059,44.085749,-5.637546,24.998922,53.687772
1772265595063,70.572013,80.663780,109.783291,63.117178
1772265595067,93.636882,-25.189437,30.607351,71.503028
1772265595071,89.475212,-281.918292,-187.184863,87.477307
1772265595075,69.232252,-323.151677,-237.857273,110.561327
1772265595079,74.348491,41.341100,60.398030,124.439518
1772265595083,102.331361,74.061353,76.014844,119.294949
1772265595086,109.954325,110.367959,101.646947,122.429730
1772265595090,114.351296,236.876992,205.308793,126.210027
1772265595094,118.195552,302.720122,258.592702,130.038829
1772265595098,128.581501,224.495931,196.701978,130.588782
1772265595102,132.962791,49.812910,48.267813,130.161080
1772265595106,124.142890,-73.824377,-63.070339,134.547073
1772265595110,112.219672,-64.655498,-55.299758,141.988186
1772265595114,114.857389,-37.388473,-19.946716,142.259888
1772265595118,134.018383,21.490659,43.960940,131.278935
1772265595122,137.436921,56.941243,58.848695,120.025196
1772265595125,109.019709,-32.425842,-52.086947,121.907371
1772265595083,102.331361,74.061353,76.014844,119.294949
1772265595086,109.954325,110.367959,101.646947,122.429730
1772265595090,114.351296,236.876992,205.308793,126.210027
1772265595094,118.195552,302.720122,258.592702,130.038829
1772265595098,128.581501,224.495931,196.701978,130.588782
1772265595102,132.962791,49.812910,48.267813,130.161080
1772265595106,124.142890,-73.824377,-63.070339,134.547073
1772265595110,112.219672,-64.655498,-55.299758,141.988186
1772265595114,114.857389,-37.388473,-19.946716,142.259888
1772265595118,134.018383,21.490659,43.960940,131.278935
1772265595122,137.436921,56.941243,58.848695,120.025196
1772265595125,109.019709,-32.425842,-52.086947,121.907371
1772265595129,96.003827,117.747511,79.163594,126.323434
1772265595133,105.098371,170.720122,128.682796,118.153836
1772265595137,115.970730,231.832092,176.067512,109.855026
1772265595141,109.642469,166.298042,112.581675,106.297948
1772265595145,92.035815,31.570010,-6.372457,106.280011
1772265595149,84.979363,36.769905,3.004716,105.398779
1772265595153,89.628157,63.297250,32.761292,100.464951
1772265595157,96.191277,-51.215923,-54.821006,90.659220
1772265595161,91.560095,-169.100153,-151.979717,80.309762
1772265595165,77.874482,-100.941691,-108.126921,75.563738
1772265595168,67.924511,75.503162,27.934597,74.464195
1772265595172,62.395974,143.002468,81.675172,72.777225
1772265595176,61.386433,164.574834,101.203344,70.862012
1772265595180,60.892059,248.196632,167.989867,67.972585
1772265595184,61.550989,272.992032,184.255127,64.116320
1772265595188,63.386307,140.182028,81.224366,60.811439
1772265595192,51.324688,-51.593215,-72.878773,57.168422
1772265595196,32.331550,-81.658961,-99.309116,53.030667
1772265595200,26.746265,59.067407,22.870481,46.977625
1772265595204,37.912790,192.012018,139.711501,36.966735
1772265595207,49.213708,198.929216,142.877626,27.522514
1772265595211,31.877806,7.697455,-31.422958,26.708878
1772265595215,-3.523599,-229.126973,-234.456035,34.852276
1772265595219,-11.451514,-194.140056,-181.889935,39.564963
1772265595129,96.003827,117.747511,79.163594,126.323434
1772265595133,105.098371,170.720122,128.682796,118.153836
1772265595137,115.970730,231.832092,176.067512,109.855026
1772265595141,109.642469,166.298042,112.581675,106.297948
1772265595145,92.035815,31.570010,-6.372457,106.280011
1772265595149,84.979363,36.769905,3.004716,105.398779
1772265595153,89.628157,63.297250,32.761292,100.464951
1772265595157,96.191277,-51.215923,-54.821006,90.659220
1772265595161,91.560095,-169.100153,-151.979717,80.309762
1772265595165,77.874482,-100.941691,-108.126921,75.563738
1772265595168,67.924511,75.503162,27.934597,74.464195
1772265595172,62.395974,143.002468,81.675172,72.777225
1772265595176,61.386433,164.574834,101.203344,70.862012
1772265595180,60.892059,248.196632,167.989867,67.972585
1772265595184,61.550989,272.992032,184.255127,64.116320
1772265595188,63.386307,140.182028,81.224366,60.811439
1772265595192,51.324688,-51.593215,-72.878773,57.168422
1772265595196,32.331550,-81.658961,-99.309116,53.030667
1772265595200,26.746265,59.067407,22.870481,46.977625
1772265595204,37.912790,192.012018,139.711501,36.966735
1772265595207,49.213708,198.929216,142.877626,27.522514
1772265595211,31.877806,7.697455,-31.422958,26.708878
1772265595215,-3.523599,-229.126973,-234.456035,34.852276
1772265595219,-11.451514,-194.140056,-181.889935,39.564963
1772265595317,-11.156344,-16.314948,-34.247228,-21.830936
1772265595321,-10.680590,54.303865,14.819436,-22.692753
1772265595325,-13.680410,-11.870763,-43.398425,-25.439439
1772265595329,-13.822129,51.073161,9.274138,-27.292355
1772265595332,-18.203561,112.891517,51.489751,-26.127813
1772265595336,-24.992197,13.446600,-35.385430,-21.551472
1772265595340,-22.694700,-122.782508,-134.108042,-17.987265
1772265595344,-5.714839,-136.942193,-127.749318,-21.953585
1772265595348,12.973051,-76.495982,-74.526938,-30.306497
1772265595352,1.973060,-217.524435,-211.271048,-32.324042
1772265595356,-34.150771,-430.209836,-403.074499,-25.194958
1772265595360,-49.963942,-278.237323,-264.214527,-18.578050
1772265595364,-20.532777,-36.833323,-66.183223,-24.200235
1772265595368,-15.352008,62.494302,12.165620,-22.421610
1772265595372,-15.964703,36.750820,-13.886280,-22.247948
1772265595375,-17.716456,42.296525,-16.675296,-21.554364
1772265595379,-12.334230,134.849448,59.591702,-23.142597
1772265595383,-9.079312,108.480020,39.088914,-26.566583
1772265595387,-14.896510,-110.175360,-138.916497,-24.807069
1772265595391,-29.309654,-282.305624,-274.190372,-17.907042
1772265595395,-30.751002,-194.421726,-186.199625,-14.175612
1772265595399,-6.412652,-7.069560,-15.322034,-18.991738
1772265595403,10.837554,11.166103,-12.331938,-28.348295
1772265595407,-8.151871,-123.432414,-153.724755,-31.054095
1772265595223,28.471046,-44.053535,-41.789369,28.762193
1772265595227,33.688095,11.572368,-6.234144,28.338031
1772265595231,20.288836,41.962463,6.904829,25.225208
1772265595235,0.382415,51.823982,13.745520,13.346767
1772265595239,-2.939306,180.024958,128.921510,-0.196733
1772265595243,4.726825,242.634189,186.404811,-8.074126
1772265595247,8.303436,19.229333,3.861237,-11.372601
1772265595250,1.638602,-294.997949,-255.793671,-9.405305
1772265595254,-6.083604,-307.668955,-271.490365,-3.512379
1772265595258,-2.587071,-39.669395,-52.115810,-1.914165
1772265595262,3.797108,140.588699,95.186344,-7.244116
1772265595266,4.983126,197.323709,139.813090,-12.610491
1772265595270,1.541002,233.800109,167.292705,-11.684667
1772265595274,-0.703052,148.056664,90.994848,-7.754681
1772265595278,1.740561,-23.176047,-49.566976,-8.467590
1772265595282,-2.477359,-103.138076,-116.539498,-13.041737
1772265595286,-9.730230,26.691505,-12.686977,-15.707276
1772265595290,-8.909583,217.851297,151.391116,-17.267312
1772265595293,-6.503670,114.414786,72.328516,-21.227324
1772265595297,-11.430311,-212.821402,-197.943255,-24.645784
1772265595301,-27.695280,-352.402739,-321.333188,-22.595686
1772265595305,-36.287963,-187.316941,-184.419894,-18.462380
1772265595309,-16.439645,44.424715,30.909700,-21.055380
1772265595313,14.045455,84.554022,76.431649,-29.521264
1772265595317,-11.156344,-16.314948,-34.247228,-21.830936
1772265595321,-10.680590,54.303865,14.819436,-22.692753
1772265595325,-13.680410,-11.870763,-43.398425,-25.439439
1772265595329,-13.822129,51.073161,9.274138,-27.292355
1772265595332,-18.203561,112.891517,51.489751,-26.127813
1772265595336,-24.992197,13.446600,-35.385430,-21.551472
1772265595340,-22.694700,-122.782508,-134.108042,-17.987265
1772265595344,-5.714839,-136.942193,-127.749318,-21.953585
1772265595348,12.973051,-76.495982,-74.526938,-30.306497
1772265595352,1.973060,-217.524435,-211.271048,-32.324042
1772265595356,-34.150771,-430.209836,-403.074499,-25.194958
1772265595360,-49.963942,-278.237323,-264.214527,-18.578050
1772265595364,-20.532777,-36.833323,-66.183223,-24.200235
1772265595368,-15.352008,62.494302,12.165620,-22.421610
1772265595372,-15.964703,36.750820,-13.886280,-22.247948
1772265595375,-17.716456,42.296525,-16.675296,-21.554364
1772265595379,-12.334230,134.849448,59.591702,-23.142597
1772265595383,-9.079312,108.480020,39.088914,-26.566583
1772265595387,-14.896510,-110.175360,-138.916497,-24.807069
1772265595391,-29.309654,-282.305624,-274.190372,-17.907042
1772265595395,-30.751002,-194.421726,-186.199625,-14.175612
1772265595399,-6.412652,-7.069560,-15.322034,-18.991738
1772265595403,10.837554,11.166103,-12.331938,-28.348295
1772265595407,-8.151871,-123.432414,-153.724755,-31.054095
1772265595411,-16.302659,80.936153,28.183100,-27.132328
1772265595415,-23.666028,46.301874,-9.142557,-27.693576
1772265595418,-27.019917,41.955845,-16.161575,-27.213367
1772265595422,-29.605047,61.894857,-0.175289,-23.478174
1772265595426,-30.777364,62.048075,9.129687,-20.019083
1772265595430,-27.202490,77.195335,36.611910,-20.971260
1772265595434,-21.385491,60.569961,20.854077,-26.216163
1772265595438,-21.834646,-35.948180,-74.283157,-32.125316
1772265595442,-38.668606,-235.396268,-257.726497,-34.302943
1772265595446,-54.308546,-308.556450,-320.417214,-32.083239
1772265595450,-44.571861,-2.789169,-42.261647,-31.825466
1772265595454,-16.824891,357.630149,271.302545,-40.007266
1772265595411,-16.302659,80.936153,28.183100,-27.132328
1772265595415,-23.666028,46.301874,-9.142557,-27.693576
1772265595418,-27.019917,41.955845,-16.161575,-27.213367
1772265595422,-29.605047,61.894857,-0.175289,-23.478174
1772265595426,-30.777364,62.048075,9.129687,-20.019083
1772265595430,-27.202490,77.195335,36.611910,-20.971260
1772265595434,-21.385491,60.569961,20.854077,-26.216163
1772265595438,-21.834646,-35.948180,-74.283157,-32.125316
1772265595442,-38.668606,-235.396268,-257.726497,-34.302943
1772265595446,-54.308546,-308.556450,-320.417214,-32.083239
1772265595450,-44.571861,-2.789169,-42.261647,-31.825466
1772265595454,-16.824891,357.630149,271.302545,-40.007266
1772265595457,-34.948911,166.639275,98.236104,-35.130278
1772265595461,-28.396993,170.615587,104.454282,-33.224215
1772265595465,-23.758788,200.622326,128.052311,-31.056239
1772265595469,-18.345421,195.399058,128.647800,-29.793634
1772265595473,-19.271149,1.716433,-30.223438,-27.583282
1772265595477,-26.171659,-184.930783,-183.429279,-22.119685
1772265595481,-31.361940,-114.206330,-117.923683,-18.343141
1772265595485,-22.112655,49.899523,29.281102,-22.970984
1772265595489,-6.193190,1.153063,-2.769086,-33.058515
1772265595493,-14.264802,-252.238268,-229.656568,-37.161206
1772265595497,-43.592681,-334.883026,-324.164697,-30.907864
1772265595500,-59.199418,-89.434848,-117.551004,-23.084689
1772265595504,-22.055829,120.879148,84.612674,-30.374005
1772265595508,-12.060327,47.620562,29.469252,-30.606882
1772265595512,-17.483429,32.843293,2.995730,-24.687222
1772265595516,-24.181178,46.404202,7.344481,-13.011749
1772265595520,-19.862657,126.549253,88.415912,-4.468435
1772265595524,-9.294424,185.008883,150.120267,-3.848110
1772265595528,-3.993800,63.953967,54.421821,-8.190381
1772265595532,-15.796852,-227.846332,-186.715539,-12.079164
1772265595536,-30.627435,-368.153911,-299.594684,-13.386889
1772265595539,-32.095114,-127.589754,-98.514880,-13.866910
1772265595543,-26.963218,172.250389,141.096970,-14.107076
1772265595547,-22.174805,229.935918,185.710221,-13.977230
1772265595551,-23.075464,172.104323,140.788708,-13.551537
1772265595555,-26.430150,187.301224,148.944427,-11.854400
1772265595559,-26.532056,226.279568,175.484874,-8.541710
1772265595563,-27.064249,147.613825,110.459175,-6.326152
1772265595567,-23.587880,76.217687,62.076401,-6.130252
1772265595571,-14.311197,132.151881,121.341672,-4.434952
1772265595575,-4.648041,116.979234,115.684007,-3.386124
1772265595579,-2.288589,-119.507276,-77.981701,-6.269786
1772265595582,-16.816899,-360.045440,-288.862483,-7.949649
1772265595586,-32.672514,-287.341642,-236.123922,-6.014345
1772265595590,-24.878892,9.396299,25.133571,-5.721383
1772265595594,1.891282,235.977267,224.295633,-11.284281
1772265595598,-17.681234,50.508100,38.644344,-10.636844
1772265595602,-16.497745,152.576636,129.785812,-12.186119
1772265595606,-11.512625,160.240048,148.357608,-8.849187
1772265595610,-4.910253,79.878454,82.686875,-5.259763
1772265595614,-8.359399,-18.845215,-19.372233,-4.060223
1772265595618,-17.279211,-88.359958,-88.559014,-1.874759
1772265595622,-19.846979,-147.088839,-137.208353,-0.090866
1772265595625,-7.432017,-98.147443,-101.442764,-6.344073
1772265595629,9.360353,61.128176,31.440784,-18.129027
1772265595633,5.132199,1.865710,-26.037915,-22.239492
1772265595637,-19.654631,-234.647407,-235.426099,-13.256562
1772265595641,-36.234266,-174.834366,-162.740912,-0.618722
1772265595457,-34.948911,166.639275,98.236104,-35.130278
1772265595461,-28.396993,170.615587,104.454282,-33.224215
1772265595465,-23.758788,200.622326,128.052311,-31.056239
1772265595469,-18.345421,195.399058,128.647800,-29.793634
1772265595473,-19.271149,1.716433,-30.223438,-27.583282
1772265595477,-26.171659,-184.930783,-183.429279,-22.119685
1772265595481,-31.361940,-114.206330,-117.923683,-18.343141
1772265595485,-22.112655,49.899523,29.281102,-22.970984
1772265595489,-6.193190,1.153063,-2.769086,-33.058515
1772265595493,-14.264802,-252.238268,-229.656568,-37.161206
1772265595497,-43.592681,-334.883026,-324.164697,-30.907864
1772265595500,-59.199418,-89.434848,-117.551004,-23.084689
1772265595504,-22.055829,120.879148,84.612674,-30.374005
1772265595508,-12.060327,47.620562,29.469252,-30.606882
1772265595512,-17.483429,32.843293,2.995730,-24.687222
1772265595516,-24.181178,46.404202,7.344481,-13.011749
1772265595520,-19.862657,126.549253,88.415912,-4.468435
1772265595524,-9.294424,185.008883,150.120267,-3.848110
1772265595528,-3.993800,63.953967,54.421821,-8.190381
1772265595532,-15.796852,-227.846332,-186.715539,-12.079164
1772265595536,-30.627435,-368.153911,-299.594684,-13.386889
1772265595539,-32.095114,-127.589754,-98.514880,-13.866910
1772265595543,-26.963218,172.250389,141.096970,-14.107076
1772265595547,-22.174805,229.935918,185.710221,-13.977230
1772265595551,-23.075464,172.104323,140.788708,-13.551537
1772265595555,-26.430150,187.301224,148.944427,-11.854400
1772265595559,-26.532056,226.279568,175.484874,-8.541710
1772265595563,-27.064249,147.613825,110.459175,-6.326152
1772265595567,-23.587880,76.217687,62.076401,-6.130252
1772265595571,-14.311197,132.151881,121.341672,-4.434952
1772265595575,-4.648041,116.979234,115.684007,-3.386124
1772265595579,-2.288589,-119.507276,-77.981701,-6.269786
1772265595582,-16.816899,-360.045440,-288.862483,-7.949649
1772265595586,-32.672514,-287.341642,-236.123922,-6.014345
1772265595590,-24.878892,9.396299,25.133571,-5.721383
1772265595594,1.891282,235.977267,224.295633,-11.284281
1772265595598,-17.681234,50.508100,38.644344,-10.636844
1772265595602,-16.497745,152.576636,129.785812,-12.186119
1772265595606,-11.512625,160.240048,148.357608,-8.849187
1772265595610,-4.910253,79.878454,82.686875,-5.259763
1772265595614,-8.359399,-18.845215,-19.372233,-4.060223
1772265595618,-17.279211,-88.359958,-88.559014,-1.874759
1772265595622,-19.846979,-147.088839,-137.208353,-0.090866
1772265595625,-7.432017,-98.147443,-101.442764,-6.344073
1772265595629,9.360353,61.128176,31.440784,-18.129027
1772265595633,5.132199,1.865710,-26.037915,-22.239492
1772265595637,-19.654631,-234.647407,-235.426099,-13.256562
1772265595641,-36.234266,-174.834366,-162.740912,-0.618722
1772265595551,-23.075464,172.104323,140.788708,-13.551537
1772265595555,-26.430150,187.301224,148.944427,-11.854400
1772265595559,-26.532056,226.279568,175.484874,-8.541710
1772265595563,-27.064249,147.613825,110.459175,-6.326152
1772265595567,-23.587880,76.217687,62.076401,-6.130252
1772265595571,-14.311197,132.151881,121.341672,-4.434952
1772265595575,-4.648041,116.979234,115.684007,-3.386124
1772265595579,-2.288589,-119.507276,-77.981701,-6.269786
1772265595582,-16.816899,-360.045440,-288.862483,-7.949649
1772265595586,-32.672514,-287.341642,-236.123922,-6.014345
1772265595590,-24.878892,9.396299,25.133571,-5.721383
1772265595594,1.891282,235.977267,224.295633,-11.284281
1772265595598,-17.681234,50.508100,38.644344,-10.636844
1772265595602,-16.497745,152.576636,129.785812,-12.186119
1772265595606,-11.512625,160.240048,148.357608,-8.849187
1772265595610,-4.910253,79.878454,82.686875,-5.259763
1772265595614,-8.359399,-18.845215,-19.372233,-4.060223
1772265595618,-17.279211,-88.359958,-88.559014,-1.874759
1772265595622,-19.846979,-147.088839,-137.208353,-0.090866
1772265595625,-7.432017,-98.147443,-101.442764,-6.344073
1772265595629,9.360353,61.128176,31.440784,-18.129027
1772265595633,5.132199,1.865710,-26.037915,-22.239492
1772265595637,-19.654631,-234.647407,-235.426099,-13.256562
1772265595641,-36.234266,-174.834366,-162.740912,-0.618722
1772265595645,-3.946446,30.130690,42.236242,-6.732868
1772265595649,0.090789,32.361192,44.288592,-5.066368
1772265595653,-0.667613,-14.716568,-10.365601,-3.569089
1772265595657,-1.071229,37.347077,28.043299,-3.673737
1772265595661,5.397813,196.732067,176.730543,-6.089693
1772265595664,11.598280,201.188999,192.603174,-8.919417
1772265595668,6.570733,-34.516824,-9.825206,-7.686581
1772265595672,-12.065912,-229.864954,-192.791797,-0.504052
1772265595676,-20.031192,-67.111955,-55.904684,6.323910
1772265595680,-2.124676,222.006144,208.210438,4.881275
1772265595684,20.208506,136.053449,121.391001,-3.042594
1772265595688,15.183147,-216.058833,-217.236878,-5.545220
1772265595692,2.812950,-9.126996,-25.661628,-0.899472
1772265595696,0.885293,-0.076061,3.012279,-6.152836
1772265595700,0.100704,-59.099021,-32.357808,-11.816662
1772265595704,-4.895831,-49.916253,-18.771804,-14.018719
1772265595707,-9.788360,114.908941,122.260593,-12.004708
1772265595711,-8.023150,246.656905,233.849613,-9.345455
1772265595715,1.904591,93.579897,104.625532,-10.504372
1772265595719,8.951391,-203.723374,-146.053997,-13.929121
1772265595723,-1.826247,-359.959405,-283.853586,-12.113195
1772265595727,-16.213820,-277.800881,-212.154356,-4.568209
1772265595731,-12.049087,-31.053377,12.364661,-0.658405
1772265595735,13.033121,207.870135,221.512782,-5.692494
1772265595739,-0.682770,144.193786,141.093209,0.698031
1772265595743,0.605939,169.112326,158.899210,1.562141
1772265595746,3.876909,93.208300,97.314182,0.568209
1772265595750,9.223737,135.780402,132.388109,-1.704441
1772265595754,3.766474,162.863240,148.411034,-6.640852
1772265595758,-11.744421,41.587947,51.497119,-10.849195
1772265595762,-25.569750,-141.360001,-86.222229,-12.158455
1772265595766,-18.347491,-138.519679,-67.989479,-13.362659
1772265595770,5.600443,-6.703404,49.749398,-13.473436
1772265595774,11.627030,-120.088974,-55.261348,-7.312879
1772265595778,-9.152532,-307.372234,-227.504731,7.177844
1772265595782,-27.729693,-177.849750,-122.509179,20.280535
1772265595645,-3.946446,30.130690,42.236242,-6.732868
1772265595649,0.090789,32.361192,44.288592,-5.066368
1772265595653,-0.667613,-14.716568,-10.365601,-3.569089
1772265595657,-1.071229,37.347077,28.043299,-3.673737
1772265595661,5.397813,196.732067,176.730543,-6.089693
1772265595664,11.598280,201.188999,192.603174,-8.919417
1772265595668,6.570733,-34.516824,-9.825206,-7.686581
1772265595672,-12.065912,-229.864954,-192.791797,-0.504052
1772265595676,-20.031192,-67.111955,-55.904684,6.323910
1772265595680,-2.124676,222.006144,208.210438,4.881275
1772265595684,20.208506,136.053449,121.391001,-3.042594
1772265595688,15.183147,-216.058833,-217.236878,-5.545220
1772265595692,2.812950,-9.126996,-25.661628,-0.899472
1772265595696,0.885293,-0.076061,3.012279,-6.152836
1772265595700,0.100704,-59.099021,-32.357808,-11.816662
1772265595704,-4.895831,-49.916253,-18.771804,-14.018719
1772265595707,-9.788360,114.908941,122.260593,-12.004708
1772265595711,-8.023150,246.656905,233.849613,-9.345455
1772265595715,1.904591,93.579897,104.625532,-10.504372
1772265595719,8.951391,-203.723374,-146.053997,-13.929121
1772265595723,-1.826247,-359.959405,-283.853586,-12.113195
1772265595727,-16.213820,-277.800881,-212.154356,-4.568209
1772265595731,-12.049087,-31.053377,12.364661,-0.658405
1772265595735,13.033121,207.870135,221.512782,-5.692494
1772265595739,-0.682770,144.193786,141.093209,0.698031
1772265595743,0.605939,169.112326,158.899210,1.562141
1772265595746,3.876909,93.208300,97.314182,0.568209
1772265595750,9.223737,135.780402,132.388109,-1.704441
1772265595754,3.766474,162.863240,148.411034,-6.640852
1772265595758,-11.744421,41.587947,51.497119,-10.849195
1772265595762,-25.569750,-141.360001,-86.222229,-12.158455
1772265595766,-18.347491,-138.519679,-67.989479,-13.362659
1772265595770,5.600443,-6.703404,49.749398,-13.473436
1772265595774,11.627030,-120.088974,-55.261348,-7.312879
1772265595778,-9.152532,-307.372234,-227.504731,7.177844
1772265595782,-27.729693,-177.849750,-122.509179,20.280535
1772265595786,5.172568,99.889753,111.696609,13.285397
1772265595789,4.390858,143.382396,156.098631,13.622592
1772265595793,-2.245867,133.308913,149.979498,14.588041
1772265595797,-2.619692,158.584001,170.320275,15.503527
1772265595801,6.739233,160.984777,174.839201,13.510471
1772265595805,16.729550,83.956211,112.647761,9.740304
1772265595809,17.700842,-33.725592,17.396967,7.859044
1772265595813,5.271074,-175.945712,-101.245140,10.700540
1772265595817,-0.611745,-243.739302,-153.267508,14.352895
1772265595821,14.724900,-143.321348,-64.178718,9.025070
1772265595825,35.371588,48.176595,84.543819,-4.729795
1772265595829,30.411490,93.764999,103.271434,-10.415602
1772265595786,5.172568,99.889753,111.696609,13.285397
1772265595789,4.390858,143.382396,156.098631,13.622592
1772265595793,-2.245867,133.308913,149.979498,14.588041
1772265595797,-2.619692,158.584001,170.320275,15.503527
1772265595801,6.739233,160.984777,174.839201,13.510471
1772265595805,16.729550,83.956211,112.647761,9.740304
1772265595809,17.700842,-33.725592,17.396967,7.859044
1772265595813,5.271074,-175.945712,-101.245140,10.700540
1772265595817,-0.611745,-243.739302,-153.267508,14.352895
1772265595821,14.724900,-143.321348,-64.178718,9.025070
1772265595825,35.371588,48.176595,84.543819,-4.729795
1772265595829,30.411490,93.764999,103.271434,-10.415602
1772265595832,12.519813,176.089743,178.005597,-0.997122
1772265595836,9.511192,185.693186,179.354455,5.649094
1772265595840,7.862639,256.521690,236.263062,11.637432
1772265595844,5.434378,196.947742,183.669031,15.180983
1772265595848,4.439500,44.422091,63.367308,18.661467
1772265595852,4.374135,-3.441329,32.396940,21.199340
1772265595856,9.865824,68.354014,96.709736,18.172202
1772265595860,15.086880,46.830152,71.771757,11.779530
1772265595864,5.386472,-216.348734,-179.598437,10.014843
1772265595868,-8.220991,-377.066406,-327.208412,15.277046
1772265595871,-4.330123,-161.795199,-119.669861,19.897318
1772265595875,24.232692,161.638720,175.011407,14.435807
1772265595879,22.913283,-52.221694,-20.642213,13.628090
1772265595883,35.374078,83.952220,86.942514,12.867057
1772265595887,45.155618,238.613953,208.832849,13.375474
1772265595891,43.018165,200.696869,175.176282,7.630879
1772265595895,29.535427,1.739847,5.258386,-1.487393
1772265595899,16.776119,-123.385313,-102.245917,-2.101606
1772265595903,7.135002,-114.269242,-91.758534,3.030748
1772265595907,10.506291,-50.008109,-19.659775,3.403436
1772265595911,26.101164,-36.611026,11.372666,-1.027600
1772265595914,30.623931,-132.277612,-78.672083,-3.497659
1772265595918,10.606317,-241.912245,-198.691922,0.614152
1772265595922,-18.028166,-167.382193,-149.853704,6.848553
1772265595926,2.279395,-33.219343,-21.041278,-4.753593
1772265595930,2.172441,-5.585080,2.128555,-5.182631
1772265595934,2.680456,36.072455,28.331880,-0.190682
1772265595938,2.668454,52.165688,43.636096,3.444721
1772265595942,3.825337,44.826499,48.578245,0.849794
1772265595946,9.680437,8.989974,23.259052,-1.452442
1772265595950,10.112556,-62.886324,-39.366903,0.148309
1772265595954,-3.329769,-209.885068,-167.521774,3.505228
1772265595957,-11.538324,-209.830974,-161.550579,5.552536
1772265595961,-2.490607,-9.452655,17.279049,0.431262
1772265595965,17.099380,53.433118,68.629822,-11.287627
1772265595969,21.551990,-64.430032,-49.585957,-17.968703
1772265595832,12.519813,176.089743,178.005597,-0.997122
1772265595836,9.511192,185.693186,179.354455,5.649094
1772265595840,7.862639,256.521690,236.263062,11.637432
1772265595844,5.434378,196.947742,183.669031,15.180983
1772265595848,4.439500,44.422091,63.367308,18.661467
1772265595852,4.374135,-3.441329,32.396940,21.199340
1772265595856,9.865824,68.354014,96.709736,18.172202
1772265595860,15.086880,46.830152,71.771757,11.779530
1772265595864,5.386472,-216.348734,-179.598437,10.014843
1772265595868,-8.220991,-377.066406,-327.208412,15.277046
1772265595871,-4.330123,-161.795199,-119.669861,19.897318
1772265595875,24.232692,161.638720,175.011407,14.435807
1772265595879,22.913283,-52.221694,-20.642213,13.628090
1772265595883,35.374078,83.952220,86.942514,12.867057
1772265595887,45.155618,238.613953,208.832849,13.375474
1772265595891,43.018165,200.696869,175.176282,7.630879
1772265595895,29.535427,1.739847,5.258386,-1.487393
1772265595899,16.776119,-123.385313,-102.245917,-2.101606
1772265595903,7.135002,-114.269242,-91.758534,3.030748
1772265595907,10.506291,-50.008109,-19.659775,3.403436
1772265595911,26.101164,-36.611026,11.372666,-1.027600
1772265595914,30.623931,-132.277612,-78.672083,-3.497659
1772265595918,10.606317,-241.912245,-198.691922,0.614152
1772265595922,-18.028166,-167.382193,-149.853704,6.848553
1772265595926,2.279395,-33.219343,-21.041278,-4.753593
1772265595930,2.172441,-5.585080,2.128555,-5.182631
1772265595934,2.680456,36.072455,28.331880,-0.190682
1772265595938,2.668454,52.165688,43.636096,3.444721
1772265595942,3.825337,44.826499,48.578245,0.849794
1772265595946,9.680437,8.989974,23.259052,-1.452442
1772265595950,10.112556,-62.886324,-39.366903,0.148309
1772265595954,-3.329769,-209.885068,-167.521774,3.505228
1772265595957,-11.538324,-209.830974,-161.550579,5.552536
1772265595961,-2.490607,-9.452655,17.279049,0.431262
1772265595965,17.099380,53.433118,68.629822,-11.287627
1772265595969,21.551990,-64.430032,-49.585957,-17.968703
1772265596067,-15.002318,-8.904075,-16.770157,-8.380926
1772265596071,-12.201864,107.948261,71.674393,-5.428822
1772265596075,-9.669257,28.397655,-4.125155,-2.581664
1772265596078,-6.965853,28.063599,-2.468278,-0.886985
1772265596082,-2.566618,171.501154,130.445336,-1.007750
1772265596086,5.889989,215.543348,182.851776,-2.108328
1772265596090,6.835594,-9.740463,-3.692865,-1.864163
1772265596094,-9.182121,-269.129542,-235.195835,2.468002
1772265596098,-21.846589,-166.829526,-147.973824,10.122882
1772265596102,-11.599803,128.378152,111.575474,12.310648
1772265596106,16.627640,223.156098,182.690467,5.180061
1772265596110,27.873392,43.087611,9.272128,0.995433
1772265596114,6.198865,121.369515,84.984747,13.332986
1772265596118,6.027942,152.488273,125.604211,16.675614
1772265596121,6.228774,88.214705,78.973483,19.460685
1772265596125,4.717568,61.483396,55.721167,20.523439
1772265596129,1.160744,129.478607,115.156589,21.029337
1772265596133,-2.774096,165.699975,151.505071,19.203618
1772265596137,4.594880,101.797483,108.301581,12.740619
1772265596141,16.365291,-9.566499,18.251413,5.093025
1772265596145,12.855588,-160.750689,-118.252467,2.812411
1772265596149,-4.175728,-287.663931,-224.919033,9.401407
1772265596153,-13.171530,-151.215352,-99.658808,17.858165
1772265596157,6.918418,225.013900,224.999058,14.433212
1772265595973,-12.278298,-32.034700,-35.491101,-9.392088
1772265595977,-11.284851,136.276101,110.989402,-9.614705
1772265595981,4.386199,196.644805,169.610420,-12.593750
1772265595985,15.666838,45.010389,41.269921,-13.086367
1772265595989,14.858341,-85.833250,-77.241898,-6.278399
1772265595993,4.195463,-91.274799,-90.838852,5.142747
1772265595996,0.676484,-74.166654,-68.623095,12.179960
1772265596000,5.493041,-72.850525,-50.757077,8.952934
1772265596004,4.398747,-19.846027,-6.335998,1.985786
1772265596008,-2.820039,70.542526,59.667827,0.098994
1772265596012,-12.080990,5.305435,0.623185,1.552511
1772265596016,-16.484057,-134.946948,-111.352043,0.871633
1772265596020,-15.855603,-93.257743,-73.578722,-0.811573
1772265596024,-14.484918,19.459033,12.671929,-1.777531
1772265596028,-8.037196,73.414680,54.024742,-4.338909
1772265596032,-0.295004,115.198596,83.379125,-7.588543
1772265596036,2.978873,133.095164,83.188413,-7.530393
1772265596039,-1.279539,38.082801,-5.360145,-3.726300
1772265596043,-10.471898,-176.454083,-178.236007,-0.682415
1772265596047,-7.502876,-251.282025,-217.908232,-1.932833
1772265596051,5.603702,-79.503300,-60.644328,-7.426794
1772265596055,6.428068,-6.061922,-14.676146,-14.445403
1772265596059,-14.791736,-242.070780,-229.769715,-14.224180
1772265596063,-41.762400,-398.088663,-358.754667,-4.006581
1772265596067,-15.002318,-8.904075,-16.770157,-8.380926
1772265596071,-12.201864,107.948261,71.674393,-5.428822
1772265596075,-9.669257,28.397655,-4.125155,-2.581664
1772265596078,-6.965853,28.063599,-2.468278,-0.886985
1772265596082,-2.566618,171.501154,130.445336,-1.007750
1772265596086,5.889989,215.543348,182.851776,-2.108328
1772265596090,6.835594,-9.740463,-3.692865,-1.864163
1772265596094,-9.182121,-269.129542,-235.195835,2.468002
1772265596098,-21.846589,-166.829526,-147.973824,10.122882
1772265596102,-11.599803,128.378152,111.575474,12.310648
1772265596106,16.627640,223.156098,182.690467,5.180061
1772265596110,27.873392,43.087611,9.272128,0.995433
1772265596114,6.198865,121.369515,84.984747,13.332986
1772265596118,6.027942,152.488273,125.604211,16.675614
1772265596121,6.228774,88.214705,78.973483,19.460685
1772265596125,4.717568,61.483396,55.721167,20.523439
1772265596129,1.160744,129.478607,115.156589,21.029337
1772265596133,-2.774096,165.699975,151.505071,19.203618
1772265596137,4.594880,101.797483,108.301581,12.740619
1772265596141,16.365291,-9.566499,18.251413,5.093025
1772265596145,12.855588,-160.750689,-118.252467,2.812411
1772265596149,-4.175728,-287.663931,-224.919033,9.401407
1772265596153,-13.171530,-151.215352,-99.658808,17.858165
1772265596157,6.918418,225.013900,224.999058,14.433212
1772265595973,-12.278298,-32.034700,-35.491101,-9.392088
1772265595977,-11.284851,136.276101,110.989402,-9.614705
1772265595981,4.386199,196.644805,169.610420,-12.593750
1772265595985,15.666838,45.010389,41.269921,-13.086367
1772265595989,14.858341,-85.833250,-77.241898,-6.278399
1772265595993,4.195463,-91.274799,-90.838852,5.142747
1772265595996,0.676484,-74.166654,-68.623095,12.179960
1772265596000,5.493041,-72.850525,-50.757077,8.952934
1772265596004,4.398747,-19.846027,-6.335998,1.985786
1772265596008,-2.820039,70.542526,59.667827,0.098994
1772265596012,-12.080990,5.305435,0.623185,1.552511
1772265596016,-16.484057,-134.946948,-111.352043,0.871633
1772265596020,-15.855603,-93.257743,-73.578722,-0.811573
1772265596024,-14.484918,19.459033,12.671929,-1.777531
1772265596028,-8.037196,73.414680,54.024742,-4.338909
1772265596032,-0.295004,115.198596,83.379125,-7.588543
1772265596036,2.978873,133.095164,83.188413,-7.530393
1772265596039,-1.279539,38.082801,-5.360145,-3.726300
1772265596043,-10.471898,-176.454083,-178.236007,-0.682415
1772265596047,-7.502876,-251.282025,-217.908232,-1.932833
1772265596051,5.603702,-79.503300,-60.644328,-7.426794
1772265596055,6.428068,-6.061922,-14.676146,-14.445403
1772265596059,-14.791736,-242.070780,-229.769715,-14.224180
1772265596063,-41.762400,-398.088663,-358.754667,-4.006581
1772265596067,-15.002318,-8.904075,-16.770157,-8.380926
1772265596071,-12.201864,107.948261,71.674393,-5.428822
1772265596075,-9.669257,28.397655,-4.125155,-2.581664
1772265596078,-6.965853,28.063599,-2.468278,-0.886985
1772265596082,-2.566618,171.501154,130.445336,-1.007750
1772265596086,5.889989,215.543348,182.851776,-2.108328
1772265596090,6.835594,-9.740463,-3.692865,-1.864163
1772265596094,-9.182121,-269.129542,-235.195835,2.468002
1772265596098,-21.846589,-166.829526,-147.973824,10.122882
1772265596102,-11.599803,128.378152,111.575474,12.310648
1772265596106,16.627640,223.156098,182.690467,5.180061
1772265596110,27.873392,43.087611,9.272128,0.995433
1772265596114,6.198865,121.369515,84.984747,13.332986
1772265596118,6.027942,152.488273,125.604211,16.675614
1772265596121,6.228774,88.214705,78.973483,19.460685
1772265596125,4.717568,61.483396,55.721167,20.523439
1772265596129,1.160744,129.478607,115.156589,21.029337
1772265596133,-2.774096,165.699975,151.505071,19.203618
1772265596137,4.594880,101.797483,108.301581,12.740619
1772265596141,16.365291,-9.566499,18.251413,5.093025
1772265596145,12.855588,-160.750689,-118.252467,2.812411
1772265596149,-4.175728,-287.663931,-224.919033,9.401407
1772265596153,-13.171530,-151.215352,-99.658808,17.858165
1772265596157,6.918418,225.013900,224.999058,14.433212
1772265596161,8.217763,122.407179,119.225899,12.236780
1772265596164,12.101899,119.441545,116.831543,12.925269
1772265596168,12.907276,177.221153,166.091859,10.659798
1772265596172,7.800265,253.514419,226.319478,5.869160
1772265596176,0.692743,177.798016,156.771583,1.899152
1772265596180,-9.723241,7.534007,12.248216,-0.023731
1772265596184,-19.322516,-106.692403,-79.238194,2.248039
1772265596188,-10.675939,-57.734646,-21.482031,5.481150
1772265596192,12.517539,-5.972784,38.837029,2.661966
1772265596196,26.247961,-121.739429,-60.197550,-3.662302
1772265596200,8.198488,-225.285644,-169.677177,-4.160535
1772265596203,-29.870477,-131.784414,-112.611007,1.355329
1772265596161,8.217763,122.407179,119.225899,12.236780
1772265596164,12.101899,119.441545,116.831543,12.925269
1772265596168,12.907276,177.221153,166.091859,10.659798
1772265596172,7.800265,253.514419,226.319478,5.869160
1772265596176,0.692743,177.798016,156.771583,1.899152
1772265596180,-9.723241,7.534007,12.248216,-0.023731
1772265596184,-19.322516,-106.692403,-79.238194,2.248039
1772265596188,-10.675939,-57.734646,-21.482031,5.481150
1772265596192,12.517539,-5.972784,38.837029,2.661966
1772265596196,26.247961,-121.739429,-60.197550,-3.662302
1772265596200,8.198488,-225.285644,-169.677177,-4.160535
1772265596203,-29.870477,-131.784414,-112.611007,1.355329
1772265596207,-11.621914,120.129483,107.091986,-7.319232
1772265596211,-13.728486,157.855384,140.571734,-5.685449
1772265596215,-15.524394,165.969021,145.085312,-3.842376
1772265596219,-16.097660,123.212165,111.441371,-3.993012
1772265596223,-12.609728,64.762044,66.791803,-3.003370
1772265596227,-1.794618,49.511624,58.689858,-1.452805
1772265596231,2.467670,34.023408,45.889787,0.589896
1772265596235,-11.653127,-75.802967,-50.299339,6.086908
1772265596239,-26.227276,-201.042337,-144.601770,11.962838
1772265596243,-20.096121,-158.819425,-96.797062,10.472414
1772265596246,5.212702,57.721189,76.182679,-1.147053
1772265596250,14.805416,155.206526,133.800269,-11.588701
1772265596254,-12.647447,140.086125,115.230299,-3.325412
1772265596258,-14.853544,180.210019,145.079788,-1.741249
1772265596262,-13.163827,253.831944,206.268581,-0.278328
1772265596266,-6.127039,170.695821,140.148651,0.158611
1772265596270,-1.709657,5.503763,9.287325,3.372562
1772265596274,-3.351519,-73.854500,-54.804170,9.411870
1772265596278,2.375139,-27.983206,-12.872914,11.196101
1772265596282,11.752876,-60.041126,-48.511359,5.073106
1772265596285,8.552345,-253.612709,-239.288506,-1.654449
1772265596289,-10.514039,-321.116903,-305.343018,0.484512
1772265596293,-26.370692,-106.546897,-104.583959,7.299994
1772265596297,-9.324914,257.004709,226.965524,5.758744
1772265596207,-11.621914,120.129483,107.091986,-7.319232
1772265596211,-13.728486,157.855384,140.571734,-5.685449
1772265596215,-15.524394,165.969021,145.085312,-3.842376
1772265596219,-16.097660,123.212165,111.441371,-3.993012
1772265596223,-12.609728,64.762044,66.791803,-3.003370
1772265596227,-1.794618,49.511624,58.689858,-1.452805
1772265596231,2.467670,34.023408,45.889787,0.589896
1772265596235,-11.653127,-75.802967,-50.299339,6.086908
1772265596239,-26.227276,-201.042337,-144.601770,11.962838
1772265596243,-20.096121,-158.819425,-96.797062,10.472414
1772265596246,5.212702,57.721189,76.182679,-1.147053
1772265596250,14.805416,155.206526,133.800269,-11.588701
1772265596254,-12.647447,140.086125,115.230299,-3.325412
1772265596258,-14.853544,180.210019,145.079788,-1.741249
1772265596262,-13.163827,253.831944,206.268581,-0.278328
1772265596266,-6.127039,170.695821,140.148651,0.158611
1772265596270,-1.709657,5.503763,9.287325,3.372562
1772265596274,-3.351519,-73.854500,-54.804170,9.411870
1772265596278,2.375139,-27.983206,-12.872914,11.196101
1772265596282,11.752876,-60.041126,-48.511359,5.073106
1772265596285,8.552345,-253.612709,-239.288506,-1.654449
1772265596289,-10.514039,-321.116903,-305.343018,0.484512
1772265596293,-26.370692,-106.546897,-104.583959,7.299994
1772265596297,-9.324914,257.004709,226.965524,5.758744
1772265596442,-10.419107,-23.698489,-9.072160,-15.359328
1772265596446,-12.491221,5.006408,16.323371,-9.173585
1772265596450,-12.072708,-52.055754,-25.592858,-1.237181
1772265596453,-12.483369,29.207099,38.418809,4.223934
1772265596457,-11.608019,170.456368,148.359059,5.612187
1772265596461,-14.155504,106.572685,92.418248,4.916609
1772265596465,-21.555403,-166.963445,-130.624503,6.050203
1772265596469,-21.275547,-267.433065,-199.288077,7.384384
1772265596473,-7.233907,-70.801092,-28.391589,4.140100
1772265596477,11.941093,27.274287,44.648421,-2.629395
1772265596481,8.945879,-202.040485,-164.671266,-6.985285
1772265596485,-21.079642,-381.548486,-328.409279,-5.149796
1772265596489,-5.100422,38.928051,39.157296,-9.357434
1772265596493,-6.669875,112.837037,88.853340,-8.072978
1772265596496,-5.227175,39.570294,16.731943,-5.569895
1772265596500,-1.982414,-30.774334,-44.152509,-0.152149
1772265596504,2.105390,-11.944667,-16.720196,3.503172
1772265596508,12.215709,95.057524,93.244380,1.214862
1772265596512,18.952809,32.688448,38.731984,-0.935559
1772265596516,11.356798,-222.817963,-198.482131,1.969810
1772265596520,-4.200781,-332.155991,-302.268134,7.454787
1772265596524,-6.176145,-183.110388,-179.932178,9.638561
1772265596528,19.692611,119.357069,81.891219,3.031268
1772265596532,41.105251,248.546464,196.210337,-7.859781
1772265596395,-14.082430,151.286494,131.819588,7.330628
1772265596399,10.657325,231.827805,211.986836,1.462327
1772265596403,25.139944,37.640090,46.923363,-4.750773
1772265596407,4.322047,-200.990609,-173.048526,-1.029849
1772265596410,12.176308,49.246137,46.896051,-3.410858
1772265596414,-0.307306,9.259809,3.805210,-1.794974
1772265596418,-4.853661,-31.812649,-21.410202,3.974661
1772265596422,2.246197,-64.774634,-31.833876,4.537244
1772265596426,11.700471,-32.083656,0.271998,-0.779691
1772265596430,12.351622,-24.756188,1.200990,-6.724197
1772265596434,1.867352,-165.379393,-124.203883,-11.633253
1772265596438,-6.446821,-186.408895,-144.134627,-15.666916
1772265596442,-10.419107,-23.698489,-9.072160,-15.359328
1772265596446,-12.491221,5.006408,16.323371,-9.173585
1772265596450,-12.072708,-52.055754,-25.592858,-1.237181
1772265596453,-12.483369,29.207099,38.418809,4.223934
1772265596457,-11.608019,170.456368,148.359059,5.612187
1772265596461,-14.155504,106.572685,92.418248,4.916609
1772265596465,-21.555403,-166.963445,-130.624503,6.050203
1772265596469,-21.275547,-267.433065,-199.288077,7.384384
1772265596473,-7.233907,-70.801092,-28.391589,4.140100
1772265596477,11.941093,27.274287,44.648421,-2.629395
1772265596481,8.945879,-202.040485,-164.671266,-6.985285
1772265596485,-21.079642,-381.548486,-328.409279,-5.149796
1772265596489,-5.100422,38.928051,39.157296,-9.357434
1772265596493,-6.669875,112.837037,88.853340,-8.072978
1772265596496,-5.227175,39.570294,16.731943,-5.569895
1772265596500,-1.982414,-30.774334,-44.152509,-0.152149
1772265596504,2.105390,-11.944667,-16.720196,3.503172
1772265596508,12.215709,95.057524,93.244380,1.214862
1772265596512,18.952809,32.688448,38.731984,-0.935559
1772265596516,11.356798,-222.817963,-198.482131,1.969810
1772265596520,-4.200781,-332.155991,-302.268134,7.454787
1772265596524,-6.176145,-183.110388,-179.932178,9.638561
1772265596528,19.692611,119.357069,81.891219,3.031268
1772265596532,41.105251,248.546464,196.210337,-7.859781
1772265596301,-1.254704,82.105700,74.859924,0.844140
1772265596305,3.661780,151.242477,130.549492,-1.649834
1772265596309,7.610051,244.406898,202.986779,-3.608657
1772265596313,11.063771,177.311814,145.617149,-1.338701
1772265596317,14.887504,10.186641,11.297519,3.615719
1772265596321,11.488362,-94.804259,-73.908252,7.643571
1772265596325,0.143113,-151.587612,-123.675655,10.063144
1772265596328,-2.855235,-119.118089,-83.945016,8.439968
1772265596332,6.961740,19.626048,45.247426,-1.559166
1772265596336,18.053013,68.487921,77.207981,-14.752407
1772265596340,7.307757,-121.872708,-104.510138,-17.300648
1772265596344,-23.603622,-244.582678,-224.403671,-5.922180
1772265596348,1.506537,129.315747,114.241531,-3.530278
1772265596352,12.901098,200.855452,173.203996,-0.209119
1772265596356,15.018298,115.386596,94.927890,4.789567
1772265596360,14.773786,1.704391,4.073631,8.689382
1772265596364,15.951776,22.194755,26.386107,9.512528
1772265596368,19.682761,115.217802,106.204291,10.654495
1772265596371,18.696077,46.546077,53.936656,13.563565
1772265596375,14.151221,-154.513890,-105.917508,12.630662
1772265596379,11.910786,-171.519174,-116.636923,5.472436
1772265596383,6.031236,-57.624975,-33.426745,-1.837189
1772265596387,-4.662063,-21.987725,-17.670997,-2.020129
1772265596391,-16.474134,15.653430,11.146766,4.381008
1772265596395,-14.082430,151.286494,131.819588,7.330628
1772265596399,10.657325,231.827805,211.986836,1.462327
1772265596403,25.139944,37.640090,46.923363,-4.750773
1772265596407,4.322047,-200.990609,-173.048526,-1.029849
1772265596410,12.176308,49.246137,46.896051,-3.410858
1772265596414,-0.307306,9.259809,3.805210,-1.794974
1772265596418,-4.853661,-31.812649,-21.410202,3.974661
1772265596422,2.246197,-64.774634,-31.833876,4.537244
1772265596426,11.700471,-32.083656,0.271998,-0.779691
1772265596430,12.351622,-24.756188,1.200990,-6.724197
1772265596434,1.867352,-165.379393,-124.203883,-11.633253
1772265596438,-6.446821,-186.408895,-144.134627,-15.666916
1772265596442,-10.419107,-23.698489,-9.072160,-15.359328
1772265596446,-12.491221,5.006408,16.323371,-9.173585
1772265596450,-12.072708,-52.055754,-25.592858,-1.237181
1772265596453,-12.483369,29.207099,38.418809,4.223934
1772265596457,-11.608019,170.456368,148.359059,5.612187
1772265596461,-14.155504,106.572685,92.418248,4.916609
1772265596465,-21.555403,-166.963445,-130.624503,6.050203
1772265596469,-21.275547,-267.433065,-199.288077,7.384384
1772265596473,-7.233907,-70.801092,-28.391589,4.140100
1772265596477,11.941093,27.274287,44.648421,-2.629395
1772265596481,8.945879,-202.040485,-164.671266,-6.985285
1772265596485,-21.079642,-381.548486,-328.409279,-5.149796
1772265596489,-5.100422,38.928051,39.157296,-9.357434
1772265596493,-6.669875,112.837037,88.853340,-8.072978
1772265596496,-5.227175,39.570294,16.731943,-5.569895
1772265596500,-1.982414,-30.774334,-44.152509,-0.152149
1772265596504,2.105390,-11.944667,-16.720196,3.503172
1772265596508,12.215709,95.057524,93.244380,1.214862
1772265596512,18.952809,32.688448,38.731984,-0.935559
1772265596516,11.356798,-222.817963,-198.482131,1.969810
1772265596520,-4.200781,-332.155991,-302.268134,7.454787
1772265596524,-6.176145,-183.110388,-179.932178,9.638561
1772265596528,19.692611,119.357069,81.891219,3.031268
1772265596532,41.105251,248.546464,196.210337,-7.859781
1772265596535,10.654019,167.707993,130.080500,-0.097611
1772265596539,4.889994,149.284799,120.710159,-3.264026
1772265596543,-2.135526,153.029734,124.973622,-8.397127
1772265596547,-3.528168,161.184783,131.310438,-12.393703
1772265596551,-4.889151,67.460553,50.487684,-11.875974
1772265596555,-8.864699,-44.833353,-45.913549,-7.222893
1772265596559,-1.628457,-15.552115,-10.317888,-2.744058
1772265596563,15.892023,8.817512,25.833170,-1.161197
1772265596567,24.437152,-177.139740,-122.721028,-0.623789
1772265596571,5.805837,-415.918315,-328.231055,4.555946
1772265596575,-22.251968,-335.052309,-275.923910,13.496943
1772265596578,-17.940018,104.591253,90.286961,13.746731
1772265596535,10.654019,167.707993,130.080500,-0.097611
1772265596539,4.889994,149.284799,120.710159,-3.264026
1772265596543,-2.135526,153.029734,124.973622,-8.397127
1772265596547,-3.528168,161.184783,131.310438,-12.393703
1772265596551,-4.889151,67.460553,50.487684,-11.875974
1772265596555,-8.864699,-44.833353,-45.913549,-7.222893
1772265596559,-1.628457,-15.552115,-10.317888,-2.744058
1772265596563,15.892023,8.817512,25.833170,-1.161197
1772265596567,24.437152,-177.139740,-122.721028,-0.623789
1772265596571,5.805837,-415.918315,-328.231055,4.555946
1772265596575,-22.251968,-335.052309,-275.923910,13.496943
1772265596578,-17.940018,104.591253,90.286961,13.746731
1772265596582,-7.555617,87.077328,66.918655,4.642297
1772265596586,-8.852255,137.891613,110.040589,1.850629
1772265596590,-7.935737,220.550765,175.763037,-0.008863
1772265596594,-6.322605,208.408964,158.569792,2.335075
1772265596598,-0.361821,86.112250,58.649696,1.238818
1772265596602,1.852175,-55.732580,-56.931710,-9.113284
1772265596606,-6.906839,-133.024432,-124.768882,-18.866820
1772265596610,-15.253389,-102.545608,-92.112717,-19.081660
1772265596614,-8.976589,-116.040605,-86.108771,-17.826978
1772265596617,10.613120,-170.583631,-119.744173,-20.688134
1772265596621,14.854218,-178.836368,-140.717057,-16.886730
1772265596625,-7.099276,-159.778422,-153.560632,-0.925678
1772265596629,12.779565,46.630569,27.199459,2.157554
1772265596633,12.314234,63.255691,35.260533,4.772686
1772265596637,12.432676,160.319294,112.624583,9.828479
1772265596641,11.253983,151.834360,111.623879,16.270600
1772265596645,11.389778,19.017684,7.386695,18.192577
1772265596649,21.445932,-26.698684,-26.037778,14.122027
1772265596653,26.882484,-32.788106,-33.978196,8.759930
1772265596657,14.702343,-158.162233,-140.414070,6.991424
1772265596660,-6.094992,-294.325307,-245.969019,8.671992
1772265596664,-12.087682,-220.424467,-179.285550,8.100067
1772265596668,10.500972,50.242329,46.325910,0.040218
1772265596672,31.560053,190.564881,151.157381,-9.229651
1772265596582,-7.555617,87.077328,66.918655,4.642297
1772265596586,-8.852255,137.891613,110.040589,1.850629
1772265596590,-7.935737,220.550765,175.763037,-0.008863
1772265596594,-6.322605,208.408964,158.569792,2.335075
1772265596598,-0.361821,86.112250,58.649696,1.238818
1772265596602,1.852175,-55.732580,-56.931710,-9.113284
1772265596606,-6.906839,-133.024432,-124.768882,-18.866820
1772265596610,-15.253389,-102.545608,-92.112717,-19.081660
1772265596614,-8.976589,-116.040605,-86.108771,-17.826978
1772265596617,10.613120,-170.583631,-119.744173,-20.688134
1772265596621,14.854218,-178.836368,-140.717057,-16.886730
1772265596625,-7.099276,-159.778422,-153.560632,-0.925678
1772265596629,12.779565,46.630569,27.199459,2.157554
1772265596633,12.314234,63.255691,35.260533,4.772686
1772265596637,12.432676,160.319294,112.624583,9.828479
1772265596641,11.253983,151.834360,111.623879,16.270600
1772265596645,11.389778,19.017684,7.386695,18.192577
1772265596649,21.445932,-26.698684,-26.037778,14.122027
1772265596653,26.882484,-32.788106,-33.978196,8.759930
1772265596657,14.702343,-158.162233,-140.414070,6.991424
1772265596660,-6.094992,-294.325307,-245.969019,8.671992
1772265596664,-12.087682,-220.424467,-179.285550,8.100067
1772265596668,10.500972,50.242329,46.325910,0.040218
1772265596672,31.560053,190.564881,151.157381,-9.229651
1772265596817,-17.735613,-34.675317,-23.774205,18.396743
1772265596821,-12.484018,-60.137635,-41.734233,22.533600
1772265596824,-8.711098,-65.037170,-44.393836,21.791447
1772265596828,-3.380950,-5.805856,6.182606,17.121705
1772265596832,-4.855309,0.452530,8.089661,16.068935
1772265596836,-10.363044,-172.378588,-132.989796,20.078074
1772265596840,-5.567272,-362.763599,-273.516023,19.743850
1772265596844,10.695575,-322.625378,-232.636819,9.285388
1772265596848,24.515131,-127.499342,-85.408924,-2.660739
1772265596852,13.611446,-113.572025,-94.348656,-0.940113
1772265596856,-13.639776,-149.008257,-129.318236,14.042119
1772265596860,-18.190923,142.459875,120.994312,24.321465
1772265596864,1.736206,257.317126,201.291776,18.120675
1772265596867,4.662163,152.605572,116.657638,17.996050
1772265596871,8.545449,32.489295,26.904282,14.987606
1772265596875,14.151865,71.400865,61.794968,9.285364
1772265596879,23.523660,226.267066,188.909527,3.699663
1772265596883,24.497714,210.130138,173.255600,3.158303
1772265596887,14.544236,-45.210575,-31.894154,9.706662
1772265596891,4.188854,-237.833994,-176.318326,18.917537
1772265596895,9.268470,-190.116305,-128.608244,21.451955
1772265596899,32.261423,-64.818262,-22.818119,14.547699
1772265596903,41.518586,-46.648899,-18.418245,9.230410
1772265596907,18.655747,-121.136857,-97.806720,15.953925
1772265596770,-18.571971,164.597799,131.227833,-8.358422
1772265596774,-13.399533,241.397656,195.314277,-12.133521
1772265596778,-9.582307,147.507538,115.530399,-15.641414
1772265596782,-16.403924,-13.709159,-22.200327,-10.446638
1772265596785,-31.230136,-102.034631,-98.294132,-0.919494
1772265596789,-36.567654,-88.479996,-77.041515,2.954223
1772265596793,-29.865623,-92.692496,-66.848095,-1.962192
1772265596797,-16.564611,-115.097939,-79.351642,-6.242588
1772265596801,-10.030541,-48.642083,-30.961986,-1.090677
1772265596805,-16.149090,51.730939,41.799977,8.681275
1772265596809,-22.113802,81.009832,67.262471,13.560623
1772265596813,-22.504191,24.232610,23.457232,14.769525
1772265596817,-17.735613,-34.675317,-23.774205,18.396743
1772265596821,-12.484018,-60.137635,-41.734233,22.533600
1772265596824,-8.711098,-65.037170,-44.393836,21.791447
1772265596828,-3.380950,-5.805856,6.182606,17.121705
1772265596832,-4.855309,0.452530,8.089661,16.068935
1772265596836,-10.363044,-172.378588,-132.989796,20.078074
1772265596840,-5.567272,-362.763599,-273.516023,19.743850
1772265596844,10.695575,-322.625378,-232.636819,9.285388
1772265596848,24.515131,-127.499342,-85.408924,-2.660739
1772265596852,13.611446,-113.572025,-94.348656,-0.940113
1772265596856,-13.639776,-149.008257,-129.318236,14.042119
1772265596860,-18.190923,142.459875,120.994312,24.321465
1772265596864,1.736206,257.317126,201.291776,18.120675
1772265596867,4.662163,152.605572,116.657638,17.996050
1772265596871,8.545449,32.489295,26.904282,14.987606
1772265596875,14.151865,71.400865,61.794968,9.285364
1772265596879,23.523660,226.267066,188.909527,3.699663
1772265596883,24.497714,210.130138,173.255600,3.158303
1772265596887,14.544236,-45.210575,-31.894154,9.706662
1772265596891,4.188854,-237.833994,-176.318326,18.917537
1772265596895,9.268470,-190.116305,-128.608244,21.451955
1772265596899,32.261423,-64.818262,-22.818119,14.547699
1772265596903,41.518586,-46.648899,-18.418245,9.230410
1772265596907,18.655747,-121.136857,-97.806720,15.953925
1772265596676,3.601993,65.501957,33.637033,-3.134114
1772265596680,5.354759,93.091674,51.816486,-9.481977
1772265596684,4.920894,157.531294,103.186978,-15.567285
1772265596688,3.955777,137.670537,91.297988,-18.527407
1772265596692,-3.265351,48.080293,18.359888,-15.027177
1772265596696,-12.192864,9.865865,-14.279981,-8.032184
1772265596700,-8.514481,23.140376,4.235261,-3.325181
1772265596703,6.592818,-57.869786,-61.711739,-2.961329
1772265596707,15.740051,-168.878943,-158.447219,-4.783896
1772265596711,-1.065607,-205.402479,-191.235850,-1.422917
1772265596715,-28.405956,-152.667998,-146.758517,6.785732
1772265596719,-25.149204,105.415391,81.031657,7.806142
1772265596723,-0.970203,58.797882,38.730057,1.149521
1772265596727,1.958318,154.322732,120.334520,-2.081758
1772265596731,-0.575883,170.801659,135.867183,-6.841888
1772265596735,-3.428922,79.402676,60.009506,-7.565252
1772265596739,4.402840,26.528500,19.751703,-4.790328
1772265596742,9.317032,-42.979942,-37.780871,-4.211990
1772265596746,0.645100,-194.565831,-163.619574,-6.811513
1772265596750,-8.276576,-210.375600,-165.557056,-5.800601
1772265596754,-2.437843,16.910164,32.797053,-3.771856
1772265596758,16.933026,181.361735,169.183132,-9.704550
1772265596762,21.241406,12.488329,15.234445,-16.283317
1772265596766,-7.788601,-153.939827,-143.303727,-13.120836
1772265596770,-18.571971,164.597799,131.227833,-8.358422
1772265596774,-13.399533,241.397656,195.314277,-12.133521
1772265596778,-9.582307,147.507538,115.530399,-15.641414
1772265596782,-16.403924,-13.709159,-22.200327,-10.446638
1772265596785,-31.230136,-102.034631,-98.294132,-0.919494
1772265596789,-36.567654,-88.479996,-77.041515,2.954223
1772265596793,-29.865623,-92.692496,-66.848095,-1.962192
1772265596797,-16.564611,-115.097939,-79.351642,-6.242588
1772265596801,-10.030541,-48.642083,-30.961986,-1.090677
1772265596805,-16.149090,51.730939,41.799977,8.681275
1772265596809,-22.113802,81.009832,67.262471,13.560623
1772265596813,-22.504191,24.232610,23.457232,14.769525
1772265596817,-17.735613,-34.675317,-23.774205,18.396743
1772265596821,-12.484018,-60.137635,-41.734233,22.533600
1772265596824,-8.711098,-65.037170,-44.393836,21.791447
1772265596828,-3.380950,-5.805856,6.182606,17.121705
1772265596832,-4.855309,0.452530,8.089661,16.068935
1772265596836,-10.363044,-172.378588,-132.989796,20.078074
1772265596840,-5.567272,-362.763599,-273.516023,19.743850
1772265596844,10.695575,-322.625378,-232.636819,9.285388
1772265596848,24.515131,-127.499342,-85.408924,-2.660739
1772265596852,13.611446,-113.572025,-94.348656,-0.940113
1772265596856,-13.639776,-149.008257,-129.318236,14.042119
1772265596860,-18.190923,142.459875,120.994312,24.321465
1772265596864,1.736206,257.317126,201.291776,18.120675
1772265596867,4.662163,152.605572,116.657638,17.996050
1772265596871,8.545449,32.489295,26.904282,14.987606
1772265596875,14.151865,71.400865,61.794968,9.285364
1772265596879,23.523660,226.267066,188.909527,3.699663
1772265596883,24.497714,210.130138,173.255600,3.158303
1772265596887,14.544236,-45.210575,-31.894154,9.706662
1772265596891,4.188854,-237.833994,-176.318326,18.917537
1772265596895,9.268470,-190.116305,-128.608244,21.451955
1772265596899,32.261423,-64.818262,-22.818119,14.547699
1772265596903,41.518586,-46.648899,-18.418245,9.230410
1772265596907,18.655747,-121.136857,-97.806720,15.953925
1772265596910,22.088693,123.065428,110.903815,15.291515
1772265596914,11.888852,92.487798,79.787286,10.283264
1772265596918,3.246736,107.136841,88.143585,3.864690
1772265596922,-2.314584,159.280900,127.202917,1.033600
1772265596926,-3.615620,136.918338,109.158382,0.203872
1772265596930,4.035464,81.632229,72.217369,-3.555772
1772265596934,11.669137,-16.726181,-6.164775,-7.211699
1772265596938,8.425603,-152.351149,-120.852823,-4.274440
1772265596942,-7.908561,-287.401102,-234.070894,2.089971
1772265596946,-15.970536,-291.765133,-233.385604,3.409409
1772265596949,3.611944,-8.600575,9.754900,-2.756653
1772265596953,28.324010,247.310149,216.158626,-12.535847
1772265596910,22.088693,123.065428,110.903815,15.291515
1772265596914,11.888852,92.487798,79.787286,10.283264
1772265596918,3.246736,107.136841,88.143585,3.864690
1772265596922,-2.314584,159.280900,127.202917,1.033600
1772265596926,-3.615620,136.918338,109.158382,0.203872
1772265596930,4.035464,81.632229,72.217369,-3.555772
1772265596934,11.669137,-16.726181,-6.164775,-7.211699
1772265596938,8.425603,-152.351149,-120.852823,-4.274440
1772265596942,-7.908561,-287.401102,-234.070894,2.089971
1772265596946,-15.970536,-291.765133,-233.385604,3.409409
1772265596949,3.611944,-8.600575,9.754900,-2.756653
1772265596953,28.324010,247.310149,216.158626,-12.535847
1772265596957,-0.585419,126.346926,105.247511,-7.119115
1772265596961,-2.509623,138.134156,115.388182,-8.660582
1772265596965,-6.208419,153.611746,122.136532,-7.744972
1772265596969,-5.547995,136.941289,105.063783,-7.501841
1772265596973,-12.496689,55.015223,36.803603,-7.515070
1772265596977,-23.078367,-7.923248,-14.709303,-5.417024
1772265596981,-18.112581,20.425242,13.955308,-3.310394
1772265596985,4.603756,31.455586,31.110037,-5.317170
1772265596989,24.777716,-129.087644,-92.814772,-7.198048
1772265596992,14.079631,-366.230991,-293.991671,-0.683916
1772265596996,-17.097421,-338.271659,-283.941006,11.521790
1772265597000,-25.307192,14.206417,12.502326,16.716573
1772265597004,-1.272239,22.616827,20.349137,5.283653
1772265597008,0.806878,122.316565,102.309692,0.941062
1772265597012,0.330646,222.896033,179.809740,-1.412818
1772265597016,-1.651413,120.946883,95.390467,-3.166540
1772265597020,0.490312,-53.870349,-37.697233,-6.890191
1772265597024,-0.422034,-144.572576,-109.543664,-8.390680
1772265597028,-8.820812,-145.574392,-114.261713,-4.593260
1772265597031,-21.488469,-109.425831,-78.024126,2.249251
1772265597035,-19.947295,-86.503298,-43.881162,5.123420
1772265597039,4.896873,-35.247706,8.080963,-0.575601
1772265597043,21.770522,-32.165850,-3.425505,-7.211182
1772265597047,4.244928,-72.585802,-64.042616,-4.409010
1772265597051,6.576753,84.185347,71.395104,3.863312
1772265597055,-1.552544,105.907653,81.196104,-2.145756
1772265597059,-9.237903,188.607093,147.221277,-13.279326
1772265597063,-15.189343,147.710866,119.374638,-17.432190
1772265597067,-14.506237,30.999287,31.820694,-10.264002
1772265597071,-7.032922,-7.096490,5.820625,-2.754724
1772265597074,0.745156,-59.760950,-42.384954,-1.649012
1772265597078,6.517931,-220.954842,-177.457691,-0.667379
1772265597082,-1.834614,-343.758414,-277.865548,0.886680
1772265597086,-12.722158,-222.738894,-176.011643,-2.375443
1772265597090,0.957028,69.490437,73.032916,-14.280537
1772265597094,22.217976,259.630596,223.329119,-38.420925
1772265596957,-0.585419,126.346926,105.247511,-7.119115
1772265596961,-2.509623,138.134156,115.388182,-8.660582
1772265596965,-6.208419,153.611746,122.136532,-7.744972
1772265596969,-5.547995,136.941289,105.063783,-7.501841
1772265596973,-12.496689,55.015223,36.803603,-7.515070
1772265596977,-23.078367,-7.923248,-14.709303,-5.417024
1772265596981,-18.112581,20.425242,13.955308,-3.310394
1772265596985,4.603756,31.455586,31.110037,-5.317170
1772265596989,24.777716,-129.087644,-92.814772,-7.198048
1772265596992,14.079631,-366.230991,-293.991671,-0.683916
1772265596996,-17.097421,-338.271659,-283.941006,11.521790
1772265597000,-25.307192,14.206417,12.502326,16.716573
1772265597004,-1.272239,22.616827,20.349137,5.283653
1772265597008,0.806878,122.316565,102.309692,0.941062
1772265597012,0.330646,222.896033,179.809740,-1.412818
1772265597016,-1.651413,120.946883,95.390467,-3.166540
1772265597020,0.490312,-53.870349,-37.697233,-6.890191
1772265597024,-0.422034,-144.572576,-109.543664,-8.390680
1772265597028,-8.820812,-145.574392,-114.261713,-4.593260
1772265597031,-21.488469,-109.425831,-78.024126,2.249251
1772265597035,-19.947295,-86.503298,-43.881162,5.123420
1772265597039,4.896873,-35.247706,8.080963,-0.575601
1772265597043,21.770522,-32.165850,-3.425505,-7.211182
1772265597047,4.244928,-72.585802,-64.042616,-4.409010
1772265597051,6.576753,84.185347,71.395104,3.863312
1772265597055,-1.552544,105.907653,81.196104,-2.145756
1772265597059,-9.237903,188.607093,147.221277,-13.279326
1772265597063,-15.189343,147.710866,119.374638,-17.432190
1772265597067,-14.506237,30.999287,31.820694,-10.264002
1772265597071,-7.032922,-7.096490,5.820625,-2.754724
1772265597074,0.745156,-59.760950,-42.384954,-1.649012
1772265597078,6.517931,-220.954842,-177.457691,-0.667379
1772265597082,-1.834614,-343.758414,-277.865548,0.886680
1772265597086,-12.722158,-222.738894,-176.011643,-2.375443
1772265597090,0.957028,69.490437,73.032916,-14.280537
1772265597094,22.217976,259.630596,223.329119,-38.420925
1772265597239,3.491503,67.074128,75.275833,-9.001546
1772265597242,4.926321,101.788190,102.413596,-11.929320
1772265597246,10.634088,75.691539,84.186639,-10.095637
1772265597250,15.476637,142.481069,136.156169,-4.690738
1772265597254,5.214901,159.868302,132.013664,-1.876398
1772265597258,-10.398674,57.644246,39.439674,-1.988369
1772265597262,-14.297638,-61.085028,-41.558057,-0.037793
1772265597266,2.555400,-59.810887,-17.544569,3.199964
1772265597270,28.676636,10.798287,45.665177,4.074700
1772265597274,26.097250,-131.871790,-92.160937,5.228009
1772265597278,-12.076961,-309.200819,-256.720710,7.707856
1772265597281,-41.467740,-143.785019,-116.309017,6.878695
1772265597285,-18.229113,61.330581,47.407187,-3.082008
1772265597289,-13.879107,126.043875,106.631887,6.332857
1772265597293,-8.882841,138.171349,123.066927,18.733865
1772265597297,-5.117454,140.371205,124.452903,26.485749
1772265597301,4.631989,117.425085,108.198859,32.298779
1772265597305,11.209587,36.630269,43.097930,37.651972
1772265597309,0.900056,-90.831394,-61.320104,37.531694
1772265597313,-22.768894,-197.957658,-147.452954,33.603413
1772265597317,-27.199451,-191.403732,-130.838019,33.358230
1772265597321,0.424993,-69.639493,-15.839078,34.288227
1772265597324,24.845048,54.084993,78.206698,30.933022
1772265597328,12.941063,31.998242,36.588418,31.139126
1772265597285,-18.229113,61.330581,47.407187,-3.082008
1772265597289,-13.879107,126.043875,106.631887,6.332857
1772265597293,-8.882841,138.171349,123.066927,18.733865
1772265597297,-5.117454,140.371205,124.452903,26.485749
1772265597301,4.631989,117.425085,108.198859,32.298779
1772265597305,11.209587,36.630269,43.097930,37.651972
1772265597309,0.900056,-90.831394,-61.320104,37.531694
1772265597313,-22.768894,-197.957658,-147.452954,33.603413
1772265597317,-27.199451,-191.403732,-130.838019,33.358230
1772265597321,0.424993,-69.639493,-15.839078,34.288227
1772265597324,24.845048,54.084993,78.206698,30.933022
1772265597328,12.941063,31.998242,36.588418,31.139126
1772265597098,-5.659241,98.376264,73.730401,-38.372983
1772265597102,-1.950111,135.164922,106.061221,-29.161172
1772265597106,1.992280,133.306487,105.862053,-20.318731
1772265597110,3.998951,73.655226,57.887501,-18.528115
1772265597114,-3.149942,-8.468167,-17.639514,-18.573406
1772265597117,-11.046091,-81.062254,-85.425121,-16.252395
1772265597121,-7.118254,-137.791267,-129.026564,-12.893826
1772265597125,11.570515,-160.523402,-141.840351,-12.020720
1772265597129,31.811128,-122.087047,-106.299232,-13.230466
1772265597133,24.880192,-157.257592,-142.569718,-10.597729
1772265597137,-4.812663,-233.285864,-214.048866,-2.315413
1772265597141,-17.055390,-53.088771,-55.817717,5.686643
1772265597145,8.853361,72.215255,49.522054,-1.642053
1772265597149,11.615928,56.729239,32.535083,2.650212
1772265597153,11.108932,-2.232156,-20.543050,2.454222
1772265597156,12.073718,13.565566,-3.945694,-1.997380
1772265597160,20.895466,114.880434,90.554418,-5.103982
1772265597164,27.831913,82.136931,67.786217,-3.863422
1772265597168,22.245006,-140.296955,-119.368310,-1.832379
1772265597172,4.029175,-300.448840,-257.576736,-0.585691
1772265597176,-3.549389,-136.152508,-115.734872,0.146444
1772265597180,13.692310,140.797295,128.847312,-3.391936
1772265597184,29.281373,29.886683,26.096437,-8.823352
1772265597188,15.286915,-298.637820,-272.511184,-3.752467
1772265597192,-5.225530,-84.494236,-80.769269,12.790640
1772265597196,2.391921,147.962470,127.670135,13.613405
1772265597199,15.857428,155.451055,138.581676,6.330026
1772265597203,18.513008,38.864306,34.999270,2.880280
1772265597207,11.135651,-7.043742,-7.882530,7.672056
1772265597211,5.933251,30.999037,31.077125,13.449769
1772265597215,9.771788,18.135708,30.953100,13.540107
1772265597219,20.700228,-6.894966,19.852590,8.779351
1772265597223,25.391684,-29.338395,0.247933,3.888613
1772265597227,20.378567,-144.500534,-99.167449,0.536504
1772265597231,11.673062,-239.600432,-172.114871,-2.181492
1772265597235,4.563580,-127.934624,-79.738693,-5.147095
1772265597239,3.491503,67.074128,75.275833,-9.001546
1772265597242,4.926321,101.788190,102.413596,-11.929320
1772265597246,10.634088,75.691539,84.186639,-10.095637
1772265597250,15.476637,142.481069,136.156169,-4.690738
1772265597254,5.214901,159.868302,132.013664,-1.876398
1772265597258,-10.398674,57.644246,39.439674,-1.988369
1772265597262,-14.297638,-61.085028,-41.558057,-0.037793
1772265597266,2.555400,-59.810887,-17.544569,3.199964
1772265597270,28.676636,10.798287,45.665177,4.074700
1772265597274,26.097250,-131.871790,-92.160937,5.228009
1772265597278,-12.076961,-309.200819,-256.720710,7.707856
1772265597281,-41.467740,-143.785019,-116.309017,6.878695
1772265597285,-18.229113,61.330581,47.407187,-3.082008
1772265597289,-13.879107,126.043875,106.631887,6.332857
1772265597293,-8.882841,138.171349,123.066927,18.733865
1772265597297,-5.117454,140.371205,124.452903,26.485749
1772265597301,4.631989,117.425085,108.198859,32.298779
1772265597305,11.209587,36.630269,43.097930,37.651972
1772265597309,0.900056,-90.831394,-61.320104,37.531694
1772265597313,-22.768894,-197.957658,-147.452954,33.603413
1772265597317,-27.199451,-191.403732,-130.838019,33.358230
1772265597321,0.424993,-69.639493,-15.839078,34.288227
1772265597324,24.845048,54.084993,78.206698,30.933022
1772265597328,12.941063,31.998242,36.588418,31.139126
1772265597332,7.032643,135.982009,130.238699,37.564339
1772265597336,7.436684,120.772433,104.222529,34.448568
1772265597340,8.557264,190.449745,156.326637,30.663276
1772265597344,6.739178,178.195489,148.387835,32.505990
1772265597348,4.923429,58.435008,61.368659,34.238558
1772265597352,3.259713,4.707981,26.938152,29.722576
1772265597356,2.010887,24.823513,40.812065,22.531092
1772265597360,0.379955,-43.305370,-30.325357,19.381731
1772265597363,-11.772226,-276.856939,-260.737072,21.541059
1772265597367,-26.383609,-364.935133,-351.308912,22.010053
1772265597371,-23.599152,-78.835645,-81.174635,13.447651
1772265597375,-4.013944,263.047963,228.201293,-3.311003
1772265597332,7.032643,135.982009,130.238699,37.564339
1772265597336,7.436684,120.772433,104.222529,34.448568
1772265597340,8.557264,190.449745,156.326637,30.663276
1772265597344,6.739178,178.195489,148.387835,32.505990
1772265597348,4.923429,58.435008,61.368659,34.238558
1772265597352,3.259713,4.707981,26.938152,29.722576
1772265597356,2.010887,24.823513,40.812065,22.531092
1772265597360,0.379955,-43.305370,-30.325357,19.381731
1772265597363,-11.772226,-276.856939,-260.737072,21.541059
1772265597367,-26.383609,-364.935133,-351.308912,22.010053
1772265597371,-23.599152,-78.835645,-81.174635,13.447651
1772265597375,-4.013944,263.047963,228.201293,-3.311003
1772265597379,-24.300874,92.552799,75.167840,-3.456783
1772265597383,-25.119420,155.526655,129.722143,-4.250050
1772265597387,-26.075010,238.289827,196.379671,-8.704057
1772265597391,-20.387679,181.876333,145.406067,-14.140479
1772265597395,-18.486022,-27.800375,-38.638448,-12.369184
1772265597399,-22.323011,-120.553407,-115.463454,-3.306024
1772265597403,-22.351387,-43.246768,-37.991052,4.802148
1772265597406,-4.205946,0.664109,14.834597,5.434627
1772265597410,21.385226,-80.972800,-42.975932,-0.509957
1772265597414,19.227083,-232.392807,-184.256079,-5.644861
1772265597418,-10.173457,-264.056502,-235.768146,-2.692109
1772265597422,-32.975906,-37.426368,-50.669826,1.897907
1772265597426,-1.647782,46.921187,24.531354,-8.543614
1772265597430,0.571582,154.658473,115.833284,-10.196142
1772265597434,2.057998,288.322901,222.800516,-5.304388
1772265597438,4.518313,263.236886,205.665674,-1.067672
1772265597442,8.275927,121.362098,100.681706,-5.686706
1772265597446,11.263543,-24.767351,-14.317284,-9.004076
1772265597449,5.774665,-126.426711,-96.437170,-4.717381
1772265597453,-13.856694,-205.058401,-157.251701,-1.035365
1772265597457,-21.317640,-128.252233,-81.831338,0.156201
1772265597461,-0.732265,61.340119,82.623287,-1.482658
1772265597465,20.889756,38.914062,51.815373,-12.445230
1772265597469,10.683997,-134.687884,-113.731851,-22.777080
1772265597473,-6.910000,-33.804860,-25.684255,-16.008508
1772265597477,-6.990191,23.011509,11.586060,-7.117823
1772265597481,-3.713405,101.969694,75.692464,-1.189016
1772265597485,0.404096,47.446294,35.896962,3.301346
1772265597488,1.069055,35.998265,34.846089,3.396385
1772265597492,-0.538609,114.347616,102.528701,-2.888039
1772265597496,4.689492,55.752181,53.543883,-11.202185
1772265597500,5.903382,-148.214392,-112.184883,-15.017512
1772265597504,-14.574040,-239.333976,-190.924917,-11.100523
1772265597508,-36.956037,-75.411085,-57.052898,-4.873142
1772265597512,-31.231425,192.197433,170.021339,-2.730848
1772265597516,5.039016,391.307018,331.105360,-9.576129
1772265597379,-24.300874,92.552799,75.167840,-3.456783
1772265597383,-25.119420,155.526655,129.722143,-4.250050
1772265597387,-26.075010,238.289827,196.379671,-8.704057
1772265597391,-20.387679,181.876333,145.406067,-14.140479
1772265597395,-18.486022,-27.800375,-38.638448,-12.369184
1772265597399,-22.323011,-120.553407,-115.463454,-3.306024
1772265597403,-22.351387,-43.246768,-37.991052,4.802148
1772265597406,-4.205946,0.664109,14.834597,5.434627
1772265597410,21.385226,-80.972800,-42.975932,-0.509957
1772265597414,19.227083,-232.392807,-184.256079,-5.644861
1772265597418,-10.173457,-264.056502,-235.768146,-2.692109
1772265597422,-32.975906,-37.426368,-50.669826,1.897907
1772265597426,-1.647782,46.921187,24.531354,-8.543614
1772265597430,0.571582,154.658473,115.833284,-10.196142
1772265597434,2.057998,288.322901,222.800516,-5.304388
1772265597438,4.518313,263.236886,205.665674,-1.067672
1772265597442,8.275927,121.362098,100.681706,-5.686706
1772265597446,11.263543,-24.767351,-14.317284,-9.004076
1772265597449,5.774665,-126.426711,-96.437170,-4.717381
1772265597453,-13.856694,-205.058401,-157.251701,-1.035365
1772265597457,-21.317640,-128.252233,-81.831338,0.156201
1772265597461,-0.732265,61.340119,82.623287,-1.482658
1772265597465,20.889756,38.914062,51.815373,-12.445230
1772265597469,10.683997,-134.687884,-113.731851,-22.777080
1772265597473,-6.910000,-33.804860,-25.684255,-16.008508
1772265597477,-6.990191,23.011509,11.586060,-7.117823
1772265597481,-3.713405,101.969694,75.692464,-1.189016
1772265597485,0.404096,47.446294,35.896962,3.301346
1772265597488,1.069055,35.998265,34.846089,3.396385
1772265597492,-0.538609,114.347616,102.528701,-2.888039
1772265597496,4.689492,55.752181,53.543883,-11.202185
1772265597500,5.903382,-148.214392,-112.184883,-15.017512
1772265597504,-14.574040,-239.333976,-190.924917,-11.100523
1772265597508,-36.956037,-75.411085,-57.052898,-4.873142
1772265597512,-31.231425,192.197433,170.021339,-2.730848
1772265597516,5.039016,391.307018,331.105360,-9.576129
1772265597426,-1.647782,46.921187,24.531354,-8.543614
1772265597430,0.571582,154.658473,115.833284,-10.196142
1772265597434,2.057998,288.322901,222.800516,-5.304388
1772265597438,4.518313,263.236886,205.665674,-1.067672
1772265597442,8.275927,121.362098,100.681706,-5.686706
1772265597446,11.263543,-24.767351,-14.317284,-9.004076
1772265597449,5.774665,-126.426711,-96.437170,-4.717381
1772265597453,-13.856694,-205.058401,-157.251701,-1.035365
1772265597457,-21.317640,-128.252233,-81.831338,0.156201
1772265597461,-0.732265,61.340119,82.623287,-1.482658
1772265597465,20.889756,38.914062,51.815373,-12.445230
1772265597469,10.683997,-134.687884,-113.731851,-22.777080
1772265597473,-6.910000,-33.804860,-25.684255,-16.008508
1772265597477,-6.990191,23.011509,11.586060,-7.117823
1772265597481,-3.713405,101.969694,75.692464,-1.189016
1772265597485,0.404096,47.446294,35.896962,3.301346
1772265597488,1.069055,35.998265,34.846089,3.396385
1772265597492,-0.538609,114.347616,102.528701,-2.888039
1772265597496,4.689492,55.752181,53.543883,-11.202185
1772265597500,5.903382,-148.214392,-112.184883,-15.017512
1772265597504,-14.574040,-239.333976,-190.924917,-11.100523
1772265597508,-36.956037,-75.411085,-57.052898,-4.873142
1772265597512,-31.231425,192.197433,170.021339,-2.730848
1772265597516,5.039016,391.307018,331.105360,-9.576129
1772265597520,-8.208295,251.531492,196.722043,-14.921867
1772265597524,-10.518870,228.409424,175.734443,-22.208743
1772265597528,-10.215426,143.010595,108.355299,-22.310760
1772265597531,-11.582272,103.934622,77.692243,-20.252459
1772265597535,-18.490888,98.932454,65.776364,-17.978005
1772265597539,-22.937012,50.137014,23.936056,-12.397387
1772265597543,-25.348739,-65.489268,-63.925860,-8.861783
1772265597547,-11.442533,-80.997921,-67.890318,-9.906936
1772265597551,13.363591,71.719946,57.672001,-12.993184
1772265597555,12.309639,84.604328,56.513143,-17.646618
1772265597559,-15.934867,-154.284552,-141.966057,-19.871395
1772265597563,-39.415160,-240.692013,-205.580039,-18.209618
1772265597567,-10.731588,47.983476,22.677074,-24.923458
1772265597570,-5.882627,119.246871,77.224538,-14.559033
1772265597574,-3.131047,1.930957,-22.185205,-9.316210
1772265597578,-11.098760,-2.943015,-28.655648,-16.440436
1772265597582,-17.800934,156.050403,98.382623,-24.855057
1772265597586,-14.236548,141.265299,81.476517,-26.546380
1772265597590,-12.715607,-134.755097,-141.172040,-23.388881
1772265597594,-25.672641,-353.916658,-313.071586,-17.392830
1772265597598,-31.859105,-201.855521,-180.760674,-7.945862
1772265597602,-11.281929,93.892357,62.703986,-1.416464
1772265597606,19.614471,123.328126,76.255308,-6.963425
1772265597610,23.285470,-76.505869,-96.543011,-12.731330
1772265597613,-13.990995,-49.423582,-65.427020,-1.167564
1772265597617,-5.936878,131.643747,89.403129,5.824185
1772265597621,20.479109,225.909380,170.691672,7.327540
1772265597625,34.312496,195.978059,140.283089,5.386613
1772265597629,29.986706,98.170278,60.178644,4.704991
1772265597633,11.249702,-16.018802,-25.453326,0.774456
1772265597637,-4.756798,-89.878649,-78.629353,-6.915539
1772265597641,-2.565437,-100.080040,-84.495422,-11.505327
1772265597645,7.332485,-181.300949,-152.247533,-11.082198
1772265597649,11.026385,-346.158505,-279.136507,-9.308128
1772265597653,4.260395,-350.605358,-275.516276,-6.966771
1772265597656,-1.320616,-114.664516,-89.358763,-1.210986
1772265597660,-1.237026,83.835158,63.682704,6.133453
1772265597664,-3.945922,97.027967,68.687918,13.052202
1772265597668,-2.816534,105.597769,74.725881,16.877709
1772265597672,5.101320,140.761984,101.905559,11.651672
1772265597676,11.894527,85.524747,49.652868,-0.724534
1772265597680,8.202747,-11.930596,-33.443461,-15.390352
1772265597684,-1.525160,-70.793641,-77.956160,-29.631686
1772265597688,6.927476,-45.827580,-47.471684,-38.023867
1772265597692,27.686772,-40.815992,-36.855501,-37.612026
1772265597695,33.515376,-195.010401,-171.238769,-27.224461
1772265597699,19.206059,-305.725878,-274.243129,-7.163761
1772265597703,-1.287136,-175.034171,-169.695411,9.125312
1772265597707,23.612245,17.064197,-12.324123,2.025478
1772265597711,3.835945,93.113172,46.507132,-8.347476
1772265597715,-12.630370,175.486470,105.129240,-19.314136
1772265597719,-8.669322,208.888717,130.117299,-17.067576
1772265597723,3.044152,137.589986,76.820072,-10.224116
1772265597727,11.284456,31.381101,-6.982749,-13.241125
1772265597731,12.714009,-36.509694,-63.662345,-17.843715
1772265597735,-0.732450,-133.920305,-143.839440,-11.620432
1772265597738,-15.470508,-244.697390,-219.573013,-4.073214
1772265597742,-11.435410,-233.208458,-198.791699,-8.626598
1772265597746,8.319468,-91.127025,-98.305544,-22.316938
1772265597750,11.362890,-19.091881,-63.132845,-27.924104
1772265597707,23.612245,17.064197,-12.324123,2.025478
1772265597711,3.835945,93.113172,46.507132,-8.347476
1772265597715,-12.630370,175.486470,105.129240,-19.314136
1772265597719,-8.669322,208.888717,130.117299,-17.067576
1772265597723,3.044152,137.589986,76.820072,-10.224116
1772265597727,11.284456,31.381101,-6.982749,-13.241125
1772265597731,12.714009,-36.509694,-63.662345,-17.843715
1772265597735,-0.732450,-133.920305,-143.839440,-11.620432
1772265597738,-15.470508,-244.697390,-219.573013,-4.073214
1772265597742,-11.435410,-233.208458,-198.791699,-8.626598
1772265597746,8.319468,-91.127025,-98.305544,-22.316938
1772265597750,11.362890,-19.091881,-63.132845,-27.924104
1772265597754,-7.055599,9.884159,-29.052233,-12.036083
1772265597758,-11.473867,-3.421870,-32.629740,-9.886989
1772265597762,-22.179511,85.729766,42.323334,-16.806068
1772265597766,-25.283422,73.651117,28.342033,-17.839141
1772265597770,-20.820677,-23.495445,-47.948854,-15.276408
1772265597774,-27.178965,-30.667896,-49.957197,-23.153593
1772265597778,-39.870657,34.744677,1.623222,-47.370238
1772265597781,-47.745098,-39.995230,-70.056699,-76.924790
1772265597785,-59.974872,-278.694038,-279.532374,-97.318545
1772265597789,-86.773425,-346.758672,-332.531320,-111.821690
1772265597793,-112.616488,-128.625220,-144.433353,-126.134707
1772265597797,-103.719046,150.520381,79.261937,-141.901166
1772265597801,-108.450832,-26.310761,-81.056029,-144.306012
1772265597805,-110.644894,106.528031,25.122896,-148.294019
1772265597809,-122.478946,264.408176,152.876028,-159.908868
1772265597813,-130.451325,224.271382,117.227690,-178.903551
1772265597817,-125.947261,16.754359,-58.169315,-188.568586
1772265597820,-124.013779,-114.342642,-165.825698,-181.213618
1772265597824,-130.871179,-119.360744,-162.356929,-166.882550
1772265597828,-122.885513,-19.940029,-65.995754,-165.086187
1772265597832,-107.664669,100.718260,34.886008,-185.471376
1772265597836,-111.953189,37.579853,-34.610809,-202.567049
1772265597840,-136.137407,-224.133599,-262.913220,-190.420754
1772265597844,-160.280378,-382.644161,-394.651935,-163.136393
1772265597848,-125.201642,-286.785773,-318.011227,-179.738839
1772265597852,-113.402708,-5.004458,-66.984713,-164.224017
1772265597856,-106.944124,78.587786,2.133128,-157.084003
1772265597860,-112.878535,46.381471,-22.651162,-138.635085
1772265597863,-112.482666,84.413870,16.583305,-114.625874
1772265597867,-93.880880,178.207923,105.966667,-101.903214
1772265597871,-67.401905,83.060254,42.283212,-95.290615
1772265597875,-51.905235,-216.025221,-192.869555,-79.551770
1772265597879,-49.098233,-281.007807,-238.618437,-63.773278
1772265597883,-50.605285,-27.971390,-31.535433,-56.993551
1772265597887,-39.583473,192.541804,142.911544,-52.986287
1772265597891,-17.158374,275.733248,205.064963,-41.541878
1772265597895,-6.717192,280.467611,199.523762,-25.677345
1772265597899,-6.074320,222.725346,148.851521,-19.620894
1772265597902,0.807263,113.403556,65.785944,-17.081216
1772265597906,13.023480,64.182138,35.554867,-1.828173
1772265597910,17.499230,166.001072,127.893849,22.716400
1772265597914,13.814151,246.683903,195.531578,43.168002
1772265597918,16.232741,154.629376,122.123759,46.635047
1772265597922,23.405372,-39.029307,-35.277420,38.187131
1772265597926,27.155990,-163.079787,-141.396202,39.082886
1772265597930,23.124998,-106.213541,-88.908549,49.246979
1772265597934,18.325402,50.054796,57.684394,56.582998
1772265597938,35.529894,217.153272,208.267362,59.411471
1772265597754,-7.055599,9.884159,-29.052233,-12.036083
1772265597758,-11.473867,-3.421870,-32.629740,-9.886989
1772265597762,-22.179511,85.729766,42.323334,-16.806068
1772265597766,-25.283422,73.651117,28.342033,-17.839141
1772265597770,-20.820677,-23.495445,-47.948854,-15.276408
1772265597774,-27.178965,-30.667896,-49.957197,-23.153593
1772265597778,-39.870657,34.744677,1.623222,-47.370238
1772265597781,-47.745098,-39.995230,-70.056699,-76.924790
1772265597785,-59.974872,-278.694038,-279.532374,-97.318545
1772265597789,-86.773425,-346.758672,-332.531320,-111.821690
1772265597793,-112.616488,-128.625220,-144.433353,-126.134707
1772265597797,-103.719046,150.520381,79.261937,-141.901166
1772265597801,-108.450832,-26.310761,-81.056029,-144.306012
1772265597805,-110.644894,106.528031,25.122896,-148.294019
1772265597809,-122.478946,264.408176,152.876028,-159.908868
1772265597813,-130.451325,224.271382,117.227690,-178.903551
1772265597817,-125.947261,16.754359,-58.169315,-188.568586
1772265597820,-124.013779,-114.342642,-165.825698,-181.213618
1772265597824,-130.871179,-119.360744,-162.356929,-166.882550
1772265597828,-122.885513,-19.940029,-65.995754,-165.086187
1772265597832,-107.664669,100.718260,34.886008,-185.471376
1772265597836,-111.953189,37.579853,-34.610809,-202.567049
1772265597840,-136.137407,-224.133599,-262.913220,-190.420754
1772265597844,-160.280378,-382.644161,-394.651935,-163.136393
1772265597848,-125.201642,-286.785773,-318.011227,-179.738839
1772265597852,-113.402708,-5.004458,-66.984713,-164.224017
1772265597856,-106.944124,78.587786,2.133128,-157.084003
1772265597860,-112.878535,46.381471,-22.651162,-138.635085
1772265597863,-112.482666,84.413870,16.583305,-114.625874
1772265597867,-93.880880,178.207923,105.966667,-101.903214
1772265597871,-67.401905,83.060254,42.283212,-95.290615
1772265597875,-51.905235,-216.025221,-192.869555,-79.551770
1772265597879,-49.098233,-281.007807,-238.618437,-63.773278
1772265597883,-50.605285,-27.971390,-31.535433,-56.993551
1772265597887,-39.583473,192.541804,142.911544,-52.986287
1772265597891,-17.158374,275.733248,205.064963,-41.541878
1772265597895,-6.717192,280.467611,199.523762,-25.677345
1772265597899,-6.074320,222.725346,148.851521,-19.620894
1772265597902,0.807263,113.403556,65.785944,-17.081216
1772265597906,13.023480,64.182138,35.554867,-1.828173
1772265597910,17.499230,166.001072,127.893849,22.716400
1772265597914,13.814151,246.683903,195.531578,43.168002
1772265597918,16.232741,154.629376,122.123759,46.635047
1772265597922,23.405372,-39.029307,-35.277420,38.187131
1772265597926,27.155990,-163.079787,-141.396202,39.082886
1772265597930,23.124998,-106.213541,-88.908549,49.246979
1772265597934,18.325402,50.054796,57.684394,56.582998
1772265597938,35.529894,217.153272,208.267362,59.411471
1772265597848,-125.201642,-286.785773,-318.011227,-179.738839
1772265597852,-113.402708,-5.004458,-66.984713,-164.224017
1772265597856,-106.944124,78.587786,2.133128,-157.084003
1772265597860,-112.878535,46.381471,-22.651162,-138.635085
1772265597863,-112.482666,84.413870,16.583305,-114.625874
1772265597867,-93.880880,178.207923,105.966667,-101.903214
1772265597871,-67.401905,83.060254,42.283212,-95.290615
1772265597875,-51.905235,-216.025221,-192.869555,-79.551770
1772265597879,-49.098233,-281.007807,-238.618437,-63.773278
1772265597883,-50.605285,-27.971390,-31.535433,-56.993551
1772265597887,-39.583473,192.541804,142.911544,-52.986287
1772265597891,-17.158374,275.733248,205.064963,-41.541878
1772265597895,-6.717192,280.467611,199.523762,-25.677345
1772265597899,-6.074320,222.725346,148.851521,-19.620894
1772265597902,0.807263,113.403556,65.785944,-17.081216
1772265597906,13.023480,64.182138,35.554867,-1.828173
1772265597910,17.499230,166.001072,127.893849,22.716400
1772265597914,13.814151,246.683903,195.531578,43.168002
1772265597918,16.232741,154.629376,122.123759,46.635047
1772265597922,23.405372,-39.029307,-35.277420,38.187131
1772265597926,27.155990,-163.079787,-141.396202,39.082886
1772265597930,23.124998,-106.213541,-88.908549,49.246979
1772265597934,18.325402,50.054796,57.684394,56.582998
1772265597938,35.529894,217.153272,208.267362,59.411471
1772265597754,-7.055599,9.884159,-29.052233,-12.036083
1772265597758,-11.473867,-3.421870,-32.629740,-9.886989
1772265597762,-22.179511,85.729766,42.323334,-16.806068
1772265597766,-25.283422,73.651117,28.342033,-17.839141
1772265597770,-20.820677,-23.495445,-47.948854,-15.276408
1772265597774,-27.178965,-30.667896,-49.957197,-23.153593
1772265597778,-39.870657,34.744677,1.623222,-47.370238
1772265597781,-47.745098,-39.995230,-70.056699,-76.924790
1772265597785,-59.974872,-278.694038,-279.532374,-97.318545
1772265597789,-86.773425,-346.758672,-332.531320,-111.821690
1772265597793,-112.616488,-128.625220,-144.433353,-126.134707
1772265597797,-103.719046,150.520381,79.261937,-141.901166
1772265597801,-108.450832,-26.310761,-81.056029,-144.306012
1772265597805,-110.644894,106.528031,25.122896,-148.294019
1772265597809,-122.478946,264.408176,152.876028,-159.908868
1772265597813,-130.451325,224.271382,117.227690,-178.903551
1772265597817,-125.947261,16.754359,-58.169315,-188.568586
1772265597820,-124.013779,-114.342642,-165.825698,-181.213618
1772265597824,-130.871179,-119.360744,-162.356929,-166.882550
1772265597828,-122.885513,-19.940029,-65.995754,-165.086187
1772265597832,-107.664669,100.718260,34.886008,-185.471376
1772265597836,-111.953189,37.579853,-34.610809,-202.567049
1772265597840,-136.137407,-224.133599,-262.913220,-190.420754
1772265597844,-160.280378,-382.644161,-394.651935,-163.136393
1772265597848,-125.201642,-286.785773,-318.011227,-179.738839
1772265597852,-113.402708,-5.004458,-66.984713,-164.224017
1772265597856,-106.944124,78.587786,2.133128,-157.084003
1772265597860,-112.878535,46.381471,-22.651162,-138.635085
1772265597863,-112.482666,84.413870,16.583305,-114.625874
1772265597867,-93.880880,178.207923,105.966667,-101.903214
1772265597871,-67.401905,83.060254,42.283212,-95.290615
1772265597875,-51.905235,-216.025221,-192.869555,-79.551770
1772265597879,-49.098233,-281.007807,-238.618437,-63.773278
1772265597883,-50.605285,-27.971390,-31.535433,-56.993551
1772265597887,-39.583473,192.541804,142.911544,-52.986287
1772265597891,-17.158374,275.733248,205.064963,-41.541878
1772265597895,-6.717192,280.467611,199.523762,-25.677345
1772265597899,-6.074320,222.725346,148.851521,-19.620894
1772265597902,0.807263,113.403556,65.785944,-17.081216
1772265597906,13.023480,64.182138,35.554867,-1.828173
1772265597910,17.499230,166.001072,127.893849,22.716400
1772265597914,13.814151,246.683903,195.531578,43.168002
1772265597918,16.232741,154.629376,122.123759,46.635047
1772265597922,23.405372,-39.029307,-35.277420,38.187131
1772265597926,27.155990,-163.079787,-141.396202,39.082886
1772265597930,23.124998,-106.213541,-88.908549,49.246979
1772265597934,18.325402,50.054796,57.684394,56.582998
1772265597938,35.529894,217.153272,208.267362,59.411471
1772265597942,52.780434,231.369936,212.057423,81.576361
1772265597945,58.847780,263.447880,235.577744,87.517688
1772265597949,52.997237,116.573108,114.496917,82.026113
1772265597953,51.356404,77.782799,79.285181,85.964754
1772265597957,61.553695,174.928870,153.970903,98.354071
1772265597961,65.724507,150.919985,135.581481,103.538702
1772265597965,55.510811,-30.093323,-3.624613,105.691814
1772265597969,57.658678,-57.831408,-12.365748,115.629344
1772265597973,83.667116,114.743235,129.946806,131.421799
1772265597977,105.428998,131.617097,132.788701,139.755084
1772265597981,89.542571,-117.879666,-72.857875,130.266091
1772265597985,50.074464,-247.148670,-171.192134,114.805369
1772265597988,67.324067,116.838725,129.635458,108.716073
1772265597992,89.019084,295.453246,264.178773,122.168476
1772265597996,92.218502,250.668577,216.582823,131.690137
1772265598000,93.121936,215.013261,184.754780,142.477132
1772265598004,94.544936,249.502671,210.496564,152.882710
1772265598008,94.405552,257.821902,214.869487,150.760665
1772265598012,98.536706,180.765356,151.803317,142.247759
1772265598016,110.807726,83.114086,71.288156,146.525579
1772265598020,125.037443,44.906518,44.138859,161.545564
1772265598024,133.544006,-26.258330,-9.713094,176.107662
1772265598027,147.367126,-20.875336,-5.252761,191.182699
1772265598031,165.094880,178.537722,151.810923,204.407828
1772265598035,177.384530,282.304317,224.986789,213.522009
1772265598039,191.574127,183.251959,140.922086,225.974590
1772265598043,203.079493,109.426660,82.392396,237.451086
1772265598047,205.506346,150.142314,114.392643,239.659852
1772265598051,205.999322,190.977532,152.268699,242.883117
1772265598055,212.846196,172.066940,147.704133,253.100034
1772265598059,228.057197,143.953593,133.683867,258.180415
1772265598063,237.064836,83.810110,81.141723,252.247256
1772265598067,229.472811,-84.002472,-61.926284,246.790773
1772265598070,211.104593,-263.489191,-199.018032,252.666525
1772265598074,197.631414,-158.545194,-97.145358,263.443150
1772265598078,205.925517,199.289078,203.581493,261.950044
1772265597942,52.780434,231.369936,212.057423,81.576361
1772265597945,58.847780,263.447880,235.577744,87.517688
1772265597949,52.997237,116.573108,114.496917,82.026113
1772265597953,51.356404,77.782799,79.285181,85.964754
1772265597957,61.553695,174.928870,153.970903,98.354071
1772265597961,65.724507,150.919985,135.581481,103.538702
1772265597965,55.510811,-30.093323,-3.624613,105.691814
1772265597969,57.658678,-57.831408,-12.365748,115.629344
1772265597973,83.667116,114.743235,129.946806,131.421799
1772265597977,105.428998,131.617097,132.788701,139.755084
1772265597981,89.542571,-117.879666,-72.857875,130.266091
1772265597985,50.074464,-247.148670,-171.192134,114.805369
1772265597988,67.324067,116.838725,129.635458,108.716073
1772265597992,89.019084,295.453246,264.178773,122.168476
1772265597996,92.218502,250.668577,216.582823,131.690137
1772265598000,93.121936,215.013261,184.754780,142.477132
1772265598004,94.544936,249.502671,210.496564,152.882710
1772265598008,94.405552,257.821902,214.869487,150.760665
1772265598012,98.536706,180.765356,151.803317,142.247759
1772265598016,110.807726,83.114086,71.288156,146.525579
1772265598020,125.037443,44.906518,44.138859,161.545564
1772265598024,133.544006,-26.258330,-9.713094,176.107662
1772265598027,147.367126,-20.875336,-5.252761,191.182699
1772265598031,165.094880,178.537722,151.810923,204.407828
1772265598035,177.384530,282.304317,224.986789,213.522009
1772265598039,191.574127,183.251959,140.922086,225.974590
1772265598043,203.079493,109.426660,82.392396,237.451086
1772265598047,205.506346,150.142314,114.392643,239.659852
1772265598051,205.999322,190.977532,152.268699,242.883117
1772265598055,212.846196,172.066940,147.704133,253.100034
1772265598059,228.057197,143.953593,133.683867,258.180415
1772265598063,237.064836,83.810110,81.141723,252.247256
1772265598067,229.472811,-84.002472,-61.926284,246.790773
1772265598070,211.104593,-263.489191,-199.018032,252.666525
1772265598074,197.631414,-158.545194,-97.145358,263.443150
1772265598078,205.925517,199.289078,203.581493,261.950044
1772265598082,196.961431,151.760960,151.928894,251.024912
1772265598086,191.106219,188.440707,178.088305,240.578814
1772265598090,187.339260,261.568889,235.800597,223.799134
1772265598094,179.196030,257.018431,231.693858,206.888045
1772265598098,170.231084,128.401501,131.229227,197.378262
1772265598102,154.726516,-9.962062,23.839041,195.921445
1772265598106,132.263088,-66.052627,-16.880899,195.478296
1772265598109,125.740268,-60.911932,1.718026,186.426823
1772265598113,137.104025,-147.448535,-54.102144,164.810113
1772265598117,139.229355,-274.044440,-156.446537,137.376124
1772265598121,113.285752,-262.511755,-159.464923,120.084496
1772265598125,78.939774,-116.876385,-46.079434,123.261199
1772265598082,196.961431,151.760960,151.928894,251.024912
1772265598086,191.106219,188.440707,178.088305,240.578814
1772265598090,187.339260,261.568889,235.800597,223.799134
1772265598094,179.196030,257.018431,231.693858,206.888045
1772265598098,170.231084,128.401501,131.229227,197.378262
1772265598102,154.726516,-9.962062,23.839041,195.921445
1772265598106,132.263088,-66.052627,-16.880899,195.478296
1772265598109,125.740268,-60.911932,1.718026,186.426823
1772265598113,137.104025,-147.448535,-54.102144,164.810113
1772265598117,139.229355,-274.044440,-156.446537,137.376124
1772265598121,113.285752,-262.511755,-159.464923,120.084496
1772265598125,78.939774,-116.876385,-46.079434,123.261199
1772265598410,11.651720,110.344123,67.158917,7.616942
1772265598414,22.486598,41.066804,4.632869,-0.135674
1772265598418,30.937809,-38.343200,-63.389521,-5.035940
1772265598422,24.786644,39.792224,-1.119294,-4.687900
1772265598426,10.228642,112.739506,62.943319,-1.343476
1772265598430,2.578233,97.895238,61.017520,-1.936437
1772265598434,0.660925,26.457052,3.529832,-7.153076
1772265598438,-0.863462,-40.128598,-55.713860,-10.969006
1772265598441,-10.459141,-120.436400,-121.427825,-14.615186
1772265598445,-28.125951,-189.950388,-175.371323,-20.077630
1772265598449,-36.048124,-50.182200,-58.646789,-20.770949
1772265598453,-34.636691,180.735173,126.151626,-15.410643
1772265598457,-36.248014,232.515339,161.910015,-13.628777
1772265598461,-45.982037,198.793930,129.931850,-14.831155
1772265598465,-62.973785,227.057418,147.852989,-14.698769
1772265598469,-73.973617,241.676409,157.867221,-21.933326
1772265598473,-72.044702,154.452497,89.291359,-30.900229
1772265598477,-68.141391,61.374385,18.116594,-31.293719
1772265598481,-67.835930,75.345860,33.802597,-29.118599
1772265598484,-56.858597,71.797064,29.796189,-23.005791
1772265598488,-37.120735,-103.302898,-115.566166,-17.208591
1772265598492,-37.223001,-268.421686,-247.405257,-18.920760
1772265598496,-49.274410,-161.018913,-150.308452,-15.676421
1772265598500,-39.884010,111.291576,78.914722,-8.849381
1772265598504,-27.943037,12.515618,-13.052849,-18.421373
1772265598508,-33.109181,105.404701,54.286877,-23.442934
1772265598512,-40.965804,306.946503,209.802390,-26.103315
1772265598516,-33.706758,307.953595,203.825329,-33.356726
1772265598520,-22.591272,111.603440,40.895141,-40.485674
1772265598524,-30.392418,-11.436550,-60.609499,-40.483189
1772265598527,-44.673176,27.514153,-25.986082,-35.543787
1772265598531,-46.738831,120.505302,55.446288,-33.841833
1772265598535,-39.944489,165.300590,90.231206,-38.649973
1772265598539,-31.524878,131.507483,55.052540,-43.649880
1772265598543,-32.985496,-1.555431,-63.723536,-43.973458
1772265598547,-41.341836,-136.831906,-177.490269,-36.924546
1772265598551,-22.435574,-208.104595,-232.881683,-34.574559
1772265598555,-24.967785,-157.943560,-189.525729,-26.197110
1772265598559,-35.220980,99.318937,17.946663,-21.437335
1772265598563,-41.835246,221.571035,115.071988,-27.861620
1772265598566,-41.178306,170.872030,70.607854,-36.545331
1772265598570,-38.786289,122.676112,24.158908,-46.669119
1772265598574,-36.295720,45.151067,-48.230527,-58.332130
1772265598578,-41.547639,-87.711874,-153.327686,-61.829061
1772265598582,-66.901733,-100.288593,-152.776793,-59.760030
1772265598586,-93.670017,58.986259,-24.922395,-70.921786
1772265598590,-98.966259,168.980660,44.889906,-110.488783
1772265598594,-104.742827,95.487651,-45.284519,-158.704555
1772265598410,11.651720,110.344123,67.158917,7.616942
1772265598414,22.486598,41.066804,4.632869,-0.135674
1772265598418,30.937809,-38.343200,-63.389521,-5.035940
1772265598422,24.786644,39.792224,-1.119294,-4.687900
1772265598426,10.228642,112.739506,62.943319,-1.343476
1772265598430,2.578233,97.895238,61.017520,-1.936437
1772265598434,0.660925,26.457052,3.529832,-7.153076
1772265598438,-0.863462,-40.128598,-55.713860,-10.969006
1772265598441,-10.459141,-120.436400,-121.427825,-14.615186
1772265598445,-28.125951,-189.950388,-175.371323,-20.077630
1772265598449,-36.048124,-50.182200,-58.646789,-20.770949
1772265598453,-34.636691,180.735173,126.151626,-15.410643
1772265598457,-36.248014,232.515339,161.910015,-13.628777
1772265598461,-45.982037,198.793930,129.931850,-14.831155
1772265598465,-62.973785,227.057418,147.852989,-14.698769
1772265598469,-73.973617,241.676409,157.867221,-21.933326
1772265598473,-72.044702,154.452497,89.291359,-30.900229
1772265598477,-68.141391,61.374385,18.116594,-31.293719
1772265598481,-67.835930,75.345860,33.802597,-29.118599
1772265598484,-56.858597,71.797064,29.796189,-23.005791
1772265598488,-37.120735,-103.302898,-115.566166,-17.208591
1772265598492,-37.223001,-268.421686,-247.405257,-18.920760
1772265598496,-49.274410,-161.018913,-150.308452,-15.676421
1772265598500,-39.884010,111.291576,78.914722,-8.849381
1772265598504,-27.943037,12.515618,-13.052849,-18.421373
1772265598508,-33.109181,105.404701,54.286877,-23.442934
1772265598512,-40.965804,306.946503,209.802390,-26.103315
1772265598516,-33.706758,307.953595,203.825329,-33.356726
1772265598520,-22.591272,111.603440,40.895141,-40.485674
1772265598524,-30.392418,-11.436550,-60.609499,-40.483189
1772265598527,-44.673176,27.514153,-25.986082,-35.543787
1772265598531,-46.738831,120.505302,55.446288,-33.841833
1772265598535,-39.944489,165.300590,90.231206,-38.649973
1772265598539,-31.524878,131.507483,55.052540,-43.649880
1772265598543,-32.985496,-1.555431,-63.723536,-43.973458
1772265598547,-41.341836,-136.831906,-177.490269,-36.924546
1772265598551,-22.435574,-208.104595,-232.881683,-34.574559
1772265598555,-24.967785,-157.943560,-189.525729,-26.197110
1772265598559,-35.220980,99.318937,17.946663,-21.437335
1772265598563,-41.835246,221.571035,115.071988,-27.861620
1772265598566,-41.178306,170.872030,70.607854,-36.545331
1772265598570,-38.786289,122.676112,24.158908,-46.669119
1772265598574,-36.295720,45.151067,-48.230527,-58.332130
1772265598578,-41.547639,-87.711874,-153.327686,-61.829061
1772265598582,-66.901733,-100.288593,-152.776793,-59.760030
1772265598586,-93.670017,58.986259,-24.922395,-70.921786
1772265598590,-98.966259,168.980660,44.889906,-110.488783
1772265598594,-104.742827,95.487651,-45.284519,-158.704555
1772265598598,-162.309088,41.201951,-96.042893,-179.012553
1772265598602,-212.498082,171.174671,8.571729,-193.597017
1772265598606,-232.334390,222.590276,43.777969,-209.044155
1772265598609,-236.545412,124.077616,-40.878712,-235.666289
1772265598613,-260.934288,44.893348,-102.891900,-265.895409
1772265598617,-289.369506,38.048403,-99.542986,-276.899231
1772265598621,-298.102787,0.031090,-112.968926,-268.686542
1772265598625,-296.596903,-59.988069,-146.483314,-264.331881
1772265598629,-298.102869,37.557164,-64.402967,-275.845377
1772265598633,-293.957678,191.572223,53.702775,-281.858526
1772265598637,-272.750233,125.531640,-0.264564,-267.104296
1772265598641,-250.670236,-46.623475,-125.220653,-249.515347
1772265598645,-239.232362,-32.561285,-103.757368,-238.578381
1772265598648,-226.754210,117.894784,16.562004,-225.514312
1772265598652,-212.295558,202.871476,87.831377,-203.617024
1772265598656,-195.323824,245.080544,130.873847,-176.107101
1772265598660,-163.770824,301.824018,182.765165,-151.499548
1772265598664,-126.363191,257.361512,151.078066,-125.410518
1772265598668,-103.993812,79.165803,21.535289,-91.744774
1772265598672,-93.778228,-48.091290,-63.161322,-59.691147
1772265598676,-73.507596,29.245903,3.609021,-40.615086
1772265598680,-30.648411,169.757380,109.005040,-26.274250
1772265598684,10.775618,146.438047,84.225732,0.326017
1772265598688,16.134778,78.367991,43.227880,32.737295
1772265598598,-162.309088,41.201951,-96.042893,-179.012553
1772265598602,-212.498082,171.174671,8.571729,-193.597017
1772265598606,-232.334390,222.590276,43.777969,-209.044155
1772265598609,-236.545412,124.077616,-40.878712,-235.666289
1772265598613,-260.934288,44.893348,-102.891900,-265.895409
1772265598617,-289.369506,38.048403,-99.542986,-276.899231
1772265598621,-298.102787,0.031090,-112.968926,-268.686542
1772265598625,-296.596903,-59.988069,-146.483314,-264.331881
1772265598629,-298.102869,37.557164,-64.402967,-275.845377
1772265598633,-293.957678,191.572223,53.702775,-281.858526
1772265598637,-272.750233,125.531640,-0.264564,-267.104296
1772265598641,-250.670236,-46.623475,-125.220653,-249.515347
1772265598645,-239.232362,-32.561285,-103.757368,-238.578381
1772265598648,-226.754210,117.894784,16.562004,-225.514312
1772265598652,-212.295558,202.871476,87.831377,-203.617024
1772265598656,-195.323824,245.080544,130.873847,-176.107101
1772265598660,-163.770824,301.824018,182.765165,-151.499548
1772265598664,-126.363191,257.361512,151.078066,-125.410518
1772265598668,-103.993812,79.165803,21.535289,-91.744774
1772265598672,-93.778228,-48.091290,-63.161322,-59.691147
1772265598676,-73.507596,29.245903,3.609021,-40.615086
1772265598680,-30.648411,169.757380,109.005040,-26.274250
1772265598684,10.775618,146.438047,84.225732,0.326017
1772265598688,16.134778,78.367991,43.227880,32.737295
1772265598598,-162.309088,41.201951,-96.042893,-179.012553
1772265598602,-212.498082,171.174671,8.571729,-193.597017
1772265598606,-232.334390,222.590276,43.777969,-209.044155
1772265598609,-236.545412,124.077616,-40.878712,-235.666289
1772265598613,-260.934288,44.893348,-102.891900,-265.895409
1772265598617,-289.369506,38.048403,-99.542986,-276.899231
1772265598621,-298.102787,0.031090,-112.968926,-268.686542
1772265598625,-296.596903,-59.988069,-146.483314,-264.331881
1772265598629,-298.102869,37.557164,-64.402967,-275.845377
1772265598633,-293.957678,191.572223,53.702775,-281.858526
1772265598637,-272.750233,125.531640,-0.264564,-267.104296
1772265598641,-250.670236,-46.623475,-125.220653,-249.515347
1772265598645,-239.232362,-32.561285,-103.757368,-238.578381
1772265598648,-226.754210,117.894784,16.562004,-225.514312
1772265598652,-212.295558,202.871476,87.831377,-203.617024
1772265598656,-195.323824,245.080544,130.873847,-176.107101
1772265598660,-163.770824,301.824018,182.765165,-151.499548
1772265598664,-126.363191,257.361512,151.078066,-125.410518
1772265598668,-103.993812,79.165803,21.535289,-91.744774
1772265598672,-93.778228,-48.091290,-63.161322,-59.691147
1772265598676,-73.507596,29.245903,3.609021,-40.615086
1772265598680,-30.648411,169.757380,109.005040,-26.274250
1772265598684,10.775618,146.438047,84.225732,0.326017
1772265598688,16.134778,78.367991,43.227880,32.737295
1772265598410,11.651720,110.344123,67.158917,7.616942
1772265598414,22.486598,41.066804,4.632869,-0.135674
1772265598418,30.937809,-38.343200,-63.389521,-5.035940
1772265598422,24.786644,39.792224,-1.119294,-4.687900
1772265598426,10.228642,112.739506,62.943319,-1.343476
1772265598430,2.578233,97.895238,61.017520,-1.936437
1772265598434,0.660925,26.457052,3.529832,-7.153076
1772265598438,-0.863462,-40.128598,-55.713860,-10.969006
1772265598441,-10.459141,-120.436400,-121.427825,-14.615186
1772265598445,-28.125951,-189.950388,-175.371323,-20.077630
1772265598449,-36.048124,-50.182200,-58.646789,-20.770949
1772265598453,-34.636691,180.735173,126.151626,-15.410643
1772265598457,-36.248014,232.515339,161.910015,-13.628777
1772265598461,-45.982037,198.793930,129.931850,-14.831155
1772265598465,-62.973785,227.057418,147.852989,-14.698769
1772265598469,-73.973617,241.676409,157.867221,-21.933326
1772265598473,-72.044702,154.452497,89.291359,-30.900229
1772265598477,-68.141391,61.374385,18.116594,-31.293719
1772265598481,-67.835930,75.345860,33.802597,-29.118599
1772265598484,-56.858597,71.797064,29.796189,-23.005791
1772265598488,-37.120735,-103.302898,-115.566166,-17.208591
1772265598492,-37.223001,-268.421686,-247.405257,-18.920760
1772265598496,-49.274410,-161.018913,-150.308452,-15.676421
1772265598500,-39.884010,111.291576,78.914722,-8.849381
1772265598504,-27.943037,12.515618,-13.052849,-18.421373
1772265598508,-33.109181,105.404701,54.286877,-23.442934
1772265598512,-40.965804,306.946503,209.802390,-26.103315
1772265598516,-33.706758,307.953595,203.825329,-33.356726
1772265598520,-22.591272,111.603440,40.895141,-40.485674
1772265598524,-30.392418,-11.436550,-60.609499,-40.483189
1772265598527,-44.673176,27.514153,-25.986082,-35.543787
1772265598531,-46.738831,120.505302,55.446288,-33.841833
1772265598535,-39.944489,165.300590,90.231206,-38.649973
1772265598539,-31.524878,131.507483,55.052540,-43.649880
1772265598543,-32.985496,-1.555431,-63.723536,-43.973458
1772265598547,-41.341836,-136.831906,-177.490269,-36.924546
1772265598551,-22.435574,-208.104595,-232.881683,-34.574559
1772265598555,-24.967785,-157.943560,-189.525729,-26.197110
1772265598559,-35.220980,99.318937,17.946663,-21.437335
1772265598563,-41.835246,221.571035,115.071988,-27.861620
1772265598566,-41.178306,170.872030,70.607854,-36.545331
1772265598570,-38.786289,122.676112,24.158908,-46.669119
1772265598574,-36.295720,45.151067,-48.230527,-58.332130
1772265598578,-41.547639,-87.711874,-153.327686,-61.829061
1772265598582,-66.901733,-100.288593,-152.776793,-59.760030
1772265598586,-93.670017,58.986259,-24.922395,-70.921786
1772265598590,-98.966259,168.980660,44.889906,-110.488783
1772265598594,-104.742827,95.487651,-45.284519,-158.704555
1772265598410,11.651720,110.344123,67.158917,7.616942
1772265598414,22.486598,41.066804,4.632869,-0.135674
1772265598418,30.937809,-38.343200,-63.389521,-5.035940
1772265598422,24.786644,39.792224,-1.119294,-4.687900
1772265598426,10.228642,112.739506,62.943319,-1.343476
1772265598430,2.578233,97.895238,61.017520,-1.936437
1772265598434,0.660925,26.457052,3.529832,-7.153076
1772265598438,-0.863462,-40.128598,-55.713860,-10.969006
1772265598441,-10.459141,-120.436400,-121.427825,-14.615186
1772265598445,-28.125951,-189.950388,-175.371323,-20.077630
1772265598449,-36.048124,-50.182200,-58.646789,-20.770949
1772265598453,-34.636691,180.735173,126.151626,-15.410643
1772265598457,-36.248014,232.515339,161.910015,-13.628777
1772265598461,-45.982037,198.793930,129.931850,-14.831155
1772265598465,-62.973785,227.057418,147.852989,-14.698769
1772265598469,-73.973617,241.676409,157.867221,-21.933326
1772265598473,-72.044702,154.452497,89.291359,-30.900229
1772265598477,-68.141391,61.374385,18.116594,-31.293719
1772265598481,-67.835930,75.345860,33.802597,-29.118599
1772265598484,-56.858597,71.797064,29.796189,-23.005791
1772265598488,-37.120735,-103.302898,-115.566166,-17.208591
1772265598492,-37.223001,-268.421686,-247.405257,-18.920760
1772265598496,-49.274410,-161.018913,-150.308452,-15.676421
1772265598500,-39.884010,111.291576,78.914722,-8.849381
1772265598504,-27.943037,12.515618,-13.052849,-18.421373
1772265598508,-33.109181,105.404701,54.286877,-23.442934
1772265598512,-40.965804,306.946503,209.802390,-26.103315
1772265598516,-33.706758,307.953595,203.825329,-33.356726
1772265598520,-22.591272,111.603440,40.895141,-40.485674
1772265598524,-30.392418,-11.436550,-60.609499,-40.483189
1772265598527,-44.673176,27.514153,-25.986082,-35.543787
1772265598531,-46.738831,120.505302,55.446288,-33.841833
1772265598535,-39.944489,165.300590,90.231206,-38.649973
1772265598539,-31.524878,131.507483,55.052540,-43.649880
1772265598543,-32.985496,-1.555431,-63.723536,-43.973458
1772265598547,-41.341836,-136.831906,-177.490269,-36.924546
1772265598551,-22.435574,-208.104595,-232.881683,-34.574559
1772265598555,-24.967785,-157.943560,-189.525729,-26.197110
1772265598559,-35.220980,99.318937,17.946663,-21.437335
1772265598563,-41.835246,221.571035,115.071988,-27.861620
1772265598566,-41.178306,170.872030,70.607854,-36.545331
1772265598570,-38.786289,122.676112,24.158908,-46.669119
1772265598574,-36.295720,45.151067,-48.230527,-58.332130
1772265598578,-41.547639,-87.711874,-153.327686,-61.829061
1772265598582,-66.901733,-100.288593,-152.776793,-59.760030
1772265598586,-93.670017,58.986259,-24.922395,-70.921786
1772265598590,-98.966259,168.980660,44.889906,-110.488783
1772265598594,-104.742827,95.487651,-45.284519,-158.704555
1772265598598,-162.309088,41.201951,-96.042893,-179.012553
1772265598602,-212.498082,171.174671,8.571729,-193.597017
1772265598606,-232.334390,222.590276,43.777969,-209.044155
1772265598609,-236.545412,124.077616,-40.878712,-235.666289
1772265598613,-260.934288,44.893348,-102.891900,-265.895409
1772265598617,-289.369506,38.048403,-99.542986,-276.899231
1772265598621,-298.102787,0.031090,-112.968926,-268.686542
1772265598625,-296.596903,-59.988069,-146.483314,-264.331881
1772265598629,-298.102869,37.557164,-64.402967,-275.845377
1772265598633,-293.957678,191.572223,53.702775,-281.858526
1772265598637,-272.750233,125.531640,-0.264564,-267.104296
1772265598641,-250.670236,-46.623475,-125.220653,-249.515347
1772265598645,-239.232362,-32.561285,-103.757368,-238.578381
1772265598648,-226.754210,117.894784,16.562004,-225.514312
1772265598652,-212.295558,202.871476,87.831377,-203.617024
1772265598656,-195.323824,245.080544,130.873847,-176.107101
1772265598660,-163.770824,301.824018,182.765165,-151.499548
1772265598664,-126.363191,257.361512,151.078066,-125.410518
1772265598668,-103.993812,79.165803,21.535289,-91.744774
1772265598672,-93.778228,-48.091290,-63.161322,-59.691147
1772265598676,-73.507596,29.245903,3.609021,-40.615086
1772265598680,-30.648411,169.757380,109.005040,-26.274250
1772265598684,10.775618,146.438047,84.225732,0.326017
1772265598688,16.134778,78.367991,43.227880,32.737295
1772265598598,-162.309088,41.201951,-96.042893,-179.012553
1772265598602,-212.498082,171.174671,8.571729,-193.597017
1772265598606,-232.334390,222.590276,43.777969,-209.044155
1772265598609,-236.545412,124.077616,-40.878712,-235.666289
1772265598613,-260.934288,44.893348,-102.891900,-265.895409
1772265598617,-289.369506,38.048403,-99.542986,-276.899231
1772265598621,-298.102787,0.031090,-112.968926,-268.686542
1772265598625,-296.596903,-59.988069,-146.483314,-264.331881
1772265598629,-298.102869,37.557164,-64.402967,-275.845377
1772265598633,-293.957678,191.572223,53.702775,-281.858526
1772265598637,-272.750233,125.531640,-0.264564,-267.104296
1772265598641,-250.670236,-46.623475,-125.220653,-249.515347
1772265598645,-239.232362,-32.561285,-103.757368,-238.578381
1772265598648,-226.754210,117.894784,16.562004,-225.514312
1772265598652,-212.295558,202.871476,87.831377,-203.617024
1772265598656,-195.323824,245.080544,130.873847,-176.107101
1772265598660,-163.770824,301.824018,182.765165,-151.499548
1772265598664,-126.363191,257.361512,151.078066,-125.410518
1772265598668,-103.993812,79.165803,21.535289,-91.744774
1772265598672,-93.778228,-48.091290,-63.161322,-59.691147
1772265598676,-73.507596,29.245903,3.609021,-40.615086
1772265598680,-30.648411,169.757380,109.005040,-26.274250
1772265598684,10.775618,146.438047,84.225732,0.326017
1772265598688,16.134778,78.367991,43.227880,32.737295
1772265598691,41.739189,173.353115,134.877293,60.377131
1772265598695,71.906865,197.818325,163.535960,90.414853
1772265598699,103.417111,93.853910,92.656718,111.939510
1772265598703,125.149527,26.071563,50.830788,124.053713
1772265598707,134.429908,121.617273,136.422665,133.582867
1772265598711,147.513559,156.884963,167.917364,146.772789
1772265598715,167.481316,-46.593391,-0.494254,168.966882
1772265598719,179.907546,-138.035661,-73.468248,191.388165
1772265598723,180.151665,57.442637,93.184886,205.109725
1772265598727,184.702764,197.733162,214.466022,217.852140
1772265598731,206.006875,226.691521,238.017699,225.318826
1772265598734,228.470836,306.885721,288.635410,217.625055
1772265598691,41.739189,173.353115,134.877293,60.377131
1772265598695,71.906865,197.818325,163.535960,90.414853
1772265598699,103.417111,93.853910,92.656718,111.939510
1772265598703,125.149527,26.071563,50.830788,124.053713
1772265598707,134.429908,121.617273,136.422665,133.582867
1772265598711,147.513559,156.884963,167.917364,146.772789
1772265598715,167.481316,-46.593391,-0.494254,168.966882
1772265598719,179.907546,-138.035661,-73.468248,191.388165
1772265598723,180.151665,57.442637,93.184886,205.109725
1772265598727,184.702764,197.733162,214.466022,217.852140
1772265598731,206.006875,226.691521,238.017699,225.318826
1772265598734,228.470836,306.885721,288.635410,217.625055
1772265598973,-26.603423,-55.487806,-56.061074,-38.024478
1772265598977,-30.920971,-60.927757,-63.761365,-39.142836
1772265598980,-45.956946,-26.836962,-33.962131,-40.602079
1772265598984,-59.655963,-43.879858,-43.429967,-46.540584
1772265598988,-47.540837,-72.703897,-65.642508,-45.630189
1772265598992,-27.931603,-104.989275,-94.602255,-40.732833
1772265598996,-28.065808,-272.988659,-236.578248,-47.596562
1772265599000,-39.147523,-478.069505,-400.165960,-58.662301
1772265599004,-50.552598,-430.633417,-346.930785,-52.534188
1772265599008,-51.639820,-216.128417,-160.883754,-34.833000
1772265599012,-27.920227,-129.098669,-99.710931,-28.883131
1772265599016,2.362883,-141.042772,-141.056266,-39.839286
1772265599020,-19.460313,-62.117247,-69.803740,-35.203981
1772265599023,-17.926091,-15.934111,-35.158159,-36.744053
1772265599027,-13.212220,-62.069256,-73.142733,-45.517646
1772265599031,-9.083242,-101.462306,-107.916799,-51.129006
1772265599035,-15.801130,-49.626291,-66.985613,-47.074564
1772265599039,-15.673505,4.152330,-15.265996,-36.876499
1772265599043,-7.214681,-80.375572,-77.804793,-28.707484
1772265599047,-5.844503,-216.312574,-199.639409,-31.573316
1772265599051,-12.187077,-203.022989,-211.216814,-44.424614
1772265599055,-30.800806,-133.477748,-162.968538,-53.680171
1772265599059,-54.097758,-179.208942,-179.792480,-46.777573
1772265599063,-46.506649,-217.012930,-193.067427,-29.659500
1772265598926,-23.392406,-325.827569,-266.598010,-23.546585
1772265598930,-26.398059,-263.887399,-209.252060,-21.824181
1772265598934,-22.671904,4.970619,8.320568,-15.355673
1772265598938,-18.486995,138.668936,117.507825,-1.176703
1772265598941,-19.247543,64.063091,55.287010,3.345317
1772265598945,-30.171937,-69.612300,-59.659780,-7.628246
1772265598949,-45.252194,-187.381071,-153.220350,-12.888011
1772265598953,-51.942610,-285.072751,-215.475681,-4.044235
1772265598957,-39.967424,-263.218017,-184.993833,-0.882566
1772265598961,-13.994820,-125.594845,-86.920895,-12.453621
1772265598965,-4.601398,-81.662681,-77.641101,-28.336549
1772265598969,-30.886449,-94.902023,-92.375060,-39.388164
1772265598973,-26.603423,-55.487806,-56.061074,-38.024478
1772265598977,-30.920971,-60.927757,-63.761365,-39.142836
1772265598980,-45.956946,-26.836962,-33.962131,-40.602079
1772265598984,-59.655963,-43.879858,-43.429967,-46.540584
1772265598988,-47.540837,-72.703897,-65.642508,-45.630189
1772265598992,-27.931603,-104.989275,-94.602255,-40.732833
1772265598996,-28.065808,-272.988659,-236.578248,-47.596562
1772265599000,-39.147523,-478.069505,-400.165960,-58.662301
1772265599004,-50.552598,-430.633417,-346.930785,-52.534188
1772265599008,-51.639820,-216.128417,-160.883754,-34.833000
1772265599012,-27.920227,-129.098669,-99.710931,-28.883131
1772265599016,2.362883,-141.042772,-141.056266,-39.839286
1772265599020,-19.460313,-62.117247,-69.803740,-35.203981
1772265599023,-17.926091,-15.934111,-35.158159,-36.744053
1772265599027,-13.212220,-62.069256,-73.142733,-45.517646
1772265599031,-9.083242,-101.462306,-107.916799,-51.129006
1772265599035,-15.801130,-49.626291,-66.985613,-47.074564
1772265599039,-15.673505,4.152330,-15.265996,-36.876499
1772265599043,-7.214681,-80.375572,-77.804793,-28.707484
1772265599047,-5.844503,-216.312574,-199.639409,-31.573316
1772265599051,-12.187077,-203.022989,-211.216814,-44.424614
1772265599055,-30.800806,-133.477748,-162.968538,-53.680171
1772265599059,-54.097758,-179.208942,-179.792480,-46.777573
1772265599063,-46.506649,-217.012930,-193.067427,-29.659500
1772265598926,-23.392406,-325.827569,-266.598010,-23.546585
1772265598930,-26.398059,-263.887399,-209.252060,-21.824181
1772265598934,-22.671904,4.970619,8.320568,-15.355673
1772265598938,-18.486995,138.668936,117.507825,-1.176703
1772265598941,-19.247543,64.063091,55.287010,3.345317
1772265598945,-30.171937,-69.612300,-59.659780,-7.628246
1772265598949,-45.252194,-187.381071,-153.220350,-12.888011
1772265598953,-51.942610,-285.072751,-215.475681,-4.044235
1772265598957,-39.967424,-263.218017,-184.993833,-0.882566
1772265598961,-13.994820,-125.594845,-86.920895,-12.453621
1772265598965,-4.601398,-81.662681,-77.641101,-28.336549
1772265598969,-30.886449,-94.902023,-92.375060,-39.388164
1772265598973,-26.603423,-55.487806,-56.061074,-38.024478
1772265598977,-30.920971,-60.927757,-63.761365,-39.142836
1772265598980,-45.956946,-26.836962,-33.962131,-40.602079
1772265598984,-59.655963,-43.879858,-43.429967,-46.540584
1772265598988,-47.540837,-72.703897,-65.642508,-45.630189
1772265598992,-27.931603,-104.989275,-94.602255,-40.732833
1772265598996,-28.065808,-272.988659,-236.578248,-47.596562
1772265599000,-39.147523,-478.069505,-400.165960,-58.662301
1772265599004,-50.552598,-430.633417,-346.930785,-52.534188
1772265599008,-51.639820,-216.128417,-160.883754,-34.833000
1772265599012,-27.920227,-129.098669,-99.710931,-28.883131
1772265599016,2.362883,-141.042772,-141.056266,-39.839286
1772265599020,-19.460313,-62.117247,-69.803740,-35.203981
1772265599023,-17.926091,-15.934111,-35.158159,-36.744053
1772265599027,-13.212220,-62.069256,-73.142733,-45.517646
1772265599031,-9.083242,-101.462306,-107.916799,-51.129006
1772265599035,-15.801130,-49.626291,-66.985613,-47.074564
1772265599039,-15.673505,4.152330,-15.265996,-36.876499
1772265599043,-7.214681,-80.375572,-77.804793,-28.707484
1772265599047,-5.844503,-216.312574,-199.639409,-31.573316
1772265599051,-12.187077,-203.022989,-211.216814,-44.424614
1772265599055,-30.800806,-133.477748,-162.968538,-53.680171
1772265599059,-54.097758,-179.208942,-179.792480,-46.777573
1772265599063,-46.506649,-217.012930,-193.067427,-29.659500
1772265599066,-15.221516,-182.157901,-195.198136,-37.742402
1772265599070,-9.754050,-125.691760,-147.016821,-35.256821
1772265599074,-20.502651,-128.197380,-139.645719,-34.039241
1772265599078,-37.837162,-29.691133,-55.379427,-33.701438
