timestamp,TP9_uV,AF7_uV,AF8_uV,TP10_uV
1772268122893,44.271425,-6.554690,-22.751584,11.631248
1772268122897,50.062744,29.920251,16.038173,20.210357
1772268122901,56.378700,45.660839,37.401132,23.780165
1772268122905,51.439219,104.049721,89.395598,16.033789
1772268122909,44.121557,175.541889,148.715018,9.312052
1772268122913,40.786980,141.059531,104.599621,10.304684
1772268122917,35.345847,-59.031970,-95.502644,5.522258
1772268122920,20.694932,-210.815638,-235.519803,-9.133277
1772268122924,5.569209,-129.080256,-122.394304,-11.147861
1772268122928,9.420258,33.845057,75.310903,9.135857
1772268122932,23.746730,95.132696,108.962443,24.971116
1772268122936,26.732511,-12.926161,-86.220019,9.381992
1772268122893,44.271425,-6.554690,-22.751584,11.631248
1772268122897,50.062744,29.920251,16.038173,20.210357
1772268122901,56.378700,45.660839,37.401132,23.780165
1772268122905,51.439219,104.049721,89.395598,16.033789
1772268122909,44.121557,175.541889,148.715018,9.312052
1772268122913,40.786980,141.059531,104.599621,10.304684
1772268122917,35.345847,-59.031970,-95.502644,5.522258
1772268122920,20.694932,-210.815638,-235.519803,-9.133277
1772268122924,5.569209,-129.080256,-122.394304,-11.147861
1772268122928,9.420258,33.845057,75.310903,9.135857
1772268122932,23.746730,95.132696,108.962443,24.971116
1772268122936,26.732511,-12.926161,-86.220019,9.381992
1772268122940,22.267845,156.327705,103.209951,9.262256
1772268122944,19.067447,132.863563,77.091927,4.510475
1772268122948,21.538238,113.550124,53.711768,4.776005
1772268122952,28.053287,80.495882,13.034977,7.288835
1772268122956,29.986888,35.574676,-21.011763,9.077290
1772268122960,26.737420,65.037438,34.702068,11.926691
1772268122963,22.109393,134.603151,110.812927,16.253931
1772268122967,23.361925,65.065950,8.619030,11.746746
1772268122971,27.292322,-194.151151,-276.915284,-3.227236
1772268122975,26.231257,-325.312316,-384.838238,-11.954361
1772268122979,22.203403,-20.214528,-37.715863,-0.432281
1772268122983,23.222433,375.781014,367.733750,22.528442
1772268122940,22.267845,156.327705,103.209951,9.262256
1772268122944,19.067447,132.863563,77.091927,4.510475
1772268122948,21.538238,113.550124,53.711768,4.776005
1772268122952,28.053287,80.495882,13.034977,7.288835
1772268122956,29.986888,35.574676,-21.011763,9.077290
1772268122960,26.737420,65.037438,34.702068,11.926691
1772268122963,22.109393,134.603151,110.812927,16.253931
1772268122967,23.361925,65.065950,8.619030,11.746746
1772268122971,27.292322,-194.151151,-276.915284,-3.227236
1772268122975,26.231257,-325.312316,-384.838238,-11.954361
1772268122979,22.203403,-20.214528,-37.715863,-0.432281
1772268122983,23.222433,375.781014,367.733750,22.528442
1772268122987,29.625445,110.301384,48.709578,7.598124
1772268122991,35.094808,119.362822,55.071001,12.065458
1772268122995,31.437751,198.683190,124.594070,14.795182
1772268122999,34.224099,214.432634,142.406199,18.563101
1772268123003,39.476606,58.843099,0.398641,21.127615
1772268123006,40.201925,-134.259384,-180.531705,19.608842
1772268123010,39.376878,-131.238530,-165.142566,20.176801
1772268123014,37.815348,24.815557,18.932596,30.117209
1772268123018,38.944674,31.324503,51.729573,38.546586
1772268123022,39.491450,-162.994405,-171.660082,30.207358
1772268123026,36.109601,-278.855759,-356.946565,10.415835
1772268123030,30.601705,-86.848476,-181.819630,3.227962
1772268122987,29.625445,110.301384,48.709578,7.598124
1772268122991,35.094808,119.362822,55.071001,12.065458
1772268122995,31.437751,198.683190,124.594070,14.795182
1772268122999,34.224099,214.432634,142.406199,18.563101
1772268123003,39.476606,58.843099,0.398641,21.127615
1772268123006,40.201925,-134.259384,-180.531705,19.608842
1772268123010,39.376878,-131.238530,-165.142566,20.176801
1772268123014,37.815348,24.815557,18.932596,30.117209
1772268123018,38.944674,31.324503,51.729573,38.546586
1772268123022,39.491450,-162.994405,-171.660082,30.207358
1772268123026,36.109601,-278.855759,-356.946565,10.415835
1772268123030,30.601705,-86.848476,-181.819630,3.227962
1772268123081,40.519624,132.745974,65.900989,3.877772
1772268123085,35.160197,193.838441,109.195079,4.839779
1772268123088,34.403309,255.839108,155.997219,2.872806
1772268123092,33.231722,188.668533,94.109875,-3.700066
1772268123096,28.716932,117.535848,40.080310,-8.606991
1772268123100,27.452848,149.611614,94.351909,-4.292324
1772268123104,28.511905,159.634878,122.839373,1.299383
1772268123108,29.136802,64.427075,6.770677,-7.454998
1772268123112,27.827365,-57.131464,-166.104636,-23.020806
1772268123116,23.914930,-92.503769,-209.140710,-26.549305
1772268123120,19.691419,-27.582374,-70.102949,-10.206791
1772268123124,21.220170,26.834567,64.673013,11.955116
1772268123081,40.519624,132.745974,65.900989,3.877772
1772268123085,35.160197,193.838441,109.195079,4.839779
1772268123088,34.403309,255.839108,155.997219,2.872806
1772268123092,33.231722,188.668533,94.109875,-3.700066
1772268123096,28.716932,117.535848,40.080310,-8.606991
1772268123100,27.452848,149.611614,94.351909,-4.292324
1772268123104,28.511905,159.634878,122.839373,1.299383
1772268123108,29.136802,64.427075,6.770677,-7.454998
1772268123112,27.827365,-57.131464,-166.104636,-23.020806
1772268123116,23.914930,-92.503769,-209.140710,-26.549305
1772268123120,19.691419,-27.582374,-70.102949,-10.206791
1772268123124,21.220170,26.834567,64.673013,11.955116
1772268123127,22.390650,-228.162017,-239.825017,-9.734189
1772268123131,26.164145,-4.314106,-58.476440,-9.797402
1772268123135,28.748524,166.349402,79.150615,-8.223611
1772268123139,24.543689,164.394557,76.473874,-7.990309
1772268123143,13.894365,90.828386,0.659929,-14.431020
1772268123147,9.086250,-22.388205,-113.153233,-26.914058
1772268123151,12.125179,-152.046437,-198.726353,-30.174245
1772268123155,12.438293,-149.504579,-133.109317,-17.258413
1772268123159,8.950868,28.339748,36.564832,-7.462346
1772268123163,3.764253,77.015279,13.287066,-18.110301
1772268123167,0.026313,-102.341417,-219.067499,-42.384782
1772268123170,-6.934365,-116.599628,-226.031434,-53.092604
1772268123127,22.390650,-228.162017,-239.825017,-9.734189
1772268123131,26.164145,-4.314106,-58.476440,-9.797402
1772268123135,28.748524,166.349402,79.150615,-8.223611
1772268123139,24.543689,164.394557,76.473874,-7.990309
1772268123143,13.894365,90.828386,0.659929,-14.431020
1772268123147,9.086250,-22.388205,-113.153233,-26.914058
1772268123151,12.125179,-152.046437,-198.726353,-30.174245
1772268123155,12.438293,-149.504579,-133.109317,-17.258413
1772268123159,8.950868,28.339748,36.564832,-7.462346
1772268123163,3.764253,77.015279,13.287066,-18.110301
1772268123167,0.026313,-102.341417,-219.067499,-42.384782
1772268123170,-6.934365,-116.599628,-226.031434,-53.092604
1772268123081,40.519624,132.745974,65.900989,3.877772
1772268123085,35.160197,193.838441,109.195079,4.839779
1772268123088,34.403309,255.839108,155.997219,2.872806
1772268123092,33.231722,188.668533,94.109875,-3.700066
1772268123096,28.716932,117.535848,40.080310,-8.606991
1772268123100,27.452848,149.611614,94.351909,-4.292324
1772268123104,28.511905,159.634878,122.839373,1.299383
1772268123108,29.136802,64.427075,6.770677,-7.454998
1772268123112,27.827365,-57.131464,-166.104636,-23.020806
1772268123116,23.914930,-92.503769,-209.140710,-26.549305
1772268123120,19.691419,-27.582374,-70.102949,-10.206791
1772268123124,21.220170,26.834567,64.673013,11.955116
1772268123081,40.519624,132.745974,65.900989,3.877772
1772268123085,35.160197,193.838441,109.195079,4.839779
1772268123088,34.403309,255.839108,155.997219,2.872806
1772268123092,33.231722,188.668533,94.109875,-3.700066
1772268123096,28.716932,117.535848,40.080310,-8.606991
1772268123100,27.452848,149.611614,94.351909,-4.292324
1772268123104,28.511905,159.634878,122.839373,1.299383
1772268123108,29.136802,64.427075,6.770677,-7.454998
1772268123112,27.827365,-57.131464,-166.104636,-23.020806
1772268123116,23.914930,-92.503769,-209.140710,-26.549305
1772268123120,19.691419,-27.582374,-70.102949,-10.206791
1772268123124,21.220170,26.834567,64.673013,11.955116
1772268123127,22.390650,-228.162017,-239.825017,-9.734189
1772268123131,26.164145,-4.314106,-58.476440,-9.797402
1772268123135,28.748524,166.349402,79.150615,-8.223611
1772268123139,24.543689,164.394557,76.473874,-7.990309
1772268123143,13.894365,90.828386,0.659929,-14.431020
1772268123147,9.086250,-22.388205,-113.153233,-26.914058
1772268123151,12.125179,-152.046437,-198.726353,-30.174245
1772268123155,12.438293,-149.504579,-133.109317,-17.258413
1772268123159,8.950868,28.339748,36.564832,-7.462346
1772268123163,3.764253,77.015279,13.287066,-18.110301
1772268123167,0.026313,-102.341417,-219.067499,-42.384782
1772268123170,-6.934365,-116.599628,-226.031434,-53.092604
1772268123127,22.390650,-228.162017,-239.825017,-9.734189
1772268123131,26.164145,-4.314106,-58.476440,-9.797402
1772268123135,28.748524,166.349402,79.150615,-8.223611
1772268123139,24.543689,164.394557,76.473874,-7.990309
1772268123143,13.894365,90.828386,0.659929,-14.431020
1772268123147,9.086250,-22.388205,-113.153233,-26.914058
1772268123151,12.125179,-152.046437,-198.726353,-30.174245
1772268123155,12.438293,-149.504579,-133.109317,-17.258413
1772268123159,8.950868,28.339748,36.564832,-7.462346
1772268123163,3.764253,77.015279,13.287066,-18.110301
1772268123167,0.026313,-102.341417,-219.067499,-42.384782
1772268123170,-6.934365,-116.599628,-226.031434,-53.092604
1772268123174,-14.517621,175.421216,124.461694,-24.784536
1772268123178,-11.500418,110.690439,59.622635,-20.629920
1772268123182,-1.258715,-38.603824,-105.835460,-28.072562
1772268123186,-0.551583,-61.654215,-137.066484,-35.275662
1772268123190,-2.359854,97.898103,31.272270,-26.958583
1772268123194,-1.475099,218.182690,169.735690,-10.360606
1772268123198,5.840829,136.964244,99.240810,-6.701201
1772268123202,13.035116,-19.595566,-62.546190,-16.421542
1772268123206,8.628984,-48.740420,-103.805569,-23.319374
1772268123210,-0.341805,-11.860877,-49.865487,-20.166820
1772268123213,-4.522859,-66.207876,-48.625139,-12.924074
1772268123217,-1.336779,-53.671000,-22.992032,-10.182365
1772268123221,3.097719,91.514697,73.148590,-10.029078
1772268123225,4.093647,115.687099,71.960521,-7.941776
1772268123229,4.566899,-17.624353,-51.561965,-8.453806
1772268123233,1.018273,-95.275394,-130.777353,-15.803007
1772268123237,-5.774077,-5.345018,-53.041141,-24.640304
1772268123241,-13.890805,126.691161,94.145265,-22.745290
1772268123245,-22.579644,82.630630,97.835142,-12.881561
1772268123249,-25.126986,-124.035881,-92.534659,-15.464053
1772268123252,-27.686544,-277.837767,-286.726219,-33.315084
1772268123256,-34.794211,-248.274381,-274.506285,-46.216084
1772268123260,-39.970757,-1.980880,20.482923,-36.171815
1772268123264,-42.498399,281.997875,349.683738,-9.890466
1772268123268,-46.196345,99.760135,91.862655,-26.646430
1772268123272,-45.684599,77.960950,64.060131,-24.857997
1772268123276,-37.460461,33.873628,29.783478,-18.610714
1772268123280,-26.577081,91.936439,87.599235,-9.008899
1772268123284,-25.402298,96.971388,81.197453,-2.065932
1772268123288,-28.814845,-30.815291,-52.117225,-5.573908
1772268123292,-30.224265,-135.513619,-134.329548,-9.348693
1772268123295,-29.676750,-70.429565,-23.324130,0.747337
1772268123299,-27.701285,5.253415,80.298771,12.326945
1772268123303,-32.308801,-181.087297,-125.785219,4.973804
1772268123307,-41.795372,-405.952453,-412.604799,-18.916876
1772268123311,-49.492306,-266.640323,-306.545464,-30.834980
1772268123268,-46.196345,99.760135,91.862655,-26.646430
1772268123272,-45.684599,77.960950,64.060131,-24.857997
1772268123276,-37.460461,33.873628,29.783478,-18.610714
1772268123280,-26.577081,91.936439,87.599235,-9.008899
1772268123284,-25.402298,96.971388,81.197453,-2.065932
1772268123288,-28.814845,-30.815291,-52.117225,-5.573908
1772268123292,-30.224265,-135.513619,-134.329548,-9.348693
1772268123295,-29.676750,-70.429565,-23.324130,0.747337
1772268123299,-27.701285,5.253415,80.298771,12.326945
1772268123303,-32.308801,-181.087297,-125.785219,4.973804
1772268123307,-41.795372,-405.952453,-412.604799,-18.916876
1772268123311,-49.492306,-266.640323,-306.545464,-30.834980
1772268123362,-28.032821,122.714493,129.640443,3.164365
1772268123366,-22.277155,92.149361,93.042860,8.284029
1772268123370,-27.170278,148.870162,127.353349,7.927753
1772268123374,-32.884877,134.159554,103.459796,5.332988
1772268123377,-33.626162,19.500111,12.140921,2.173635
1772268123381,-38.056081,-22.429007,5.860547,1.387356
1772268123385,-50.765207,45.995758,88.634000,2.106357
1772268123389,-57.905968,32.811628,64.053840,-5.173693
1772268123393,-55.488150,-187.782126,-158.315614,-20.501983
1772268123397,-51.709282,-326.767131,-288.523114,-30.380450
1772268123401,-55.414801,-106.899511,-58.887526,-19.108846
1772268123405,-61.270678,256.248394,315.099205,9.242979
1772268123362,-28.032821,122.714493,129.640443,3.164365
1772268123366,-22.277155,92.149361,93.042860,8.284029
1772268123370,-27.170278,148.870162,127.353349,7.927753
1772268123374,-32.884877,134.159554,103.459796,5.332988
1772268123377,-33.626162,19.500111,12.140921,2.173635
1772268123381,-38.056081,-22.429007,5.860547,1.387356
1772268123385,-50.765207,45.995758,88.634000,2.106357
1772268123389,-57.905968,32.811628,64.053840,-5.173693
1772268123393,-55.488150,-187.782126,-158.315614,-20.501983
1772268123397,-51.709282,-326.767131,-288.523114,-30.380450
1772268123401,-55.414801,-106.899511,-58.887526,-19.108846
1772268123405,-61.270678,256.248394,315.099205,9.242979
1772268123362,-28.032821,122.714493,129.640443,3.164365
1772268123366,-22.277155,92.149361,93.042860,8.284029
1772268123370,-27.170278,148.870162,127.353349,7.927753
1772268123374,-32.884877,134.159554,103.459796,5.332988
1772268123377,-33.626162,19.500111,12.140921,2.173635
1772268123381,-38.056081,-22.429007,5.860547,1.387356
1772268123385,-50.765207,45.995758,88.634000,2.106357
1772268123389,-57.905968,32.811628,64.053840,-5.173693
1772268123393,-55.488150,-187.782126,-158.315614,-20.501983
1772268123397,-51.709282,-326.767131,-288.523114,-30.380450
1772268123401,-55.414801,-106.899511,-58.887526,-19.108846
1772268123405,-61.270678,256.248394,315.099205,9.242979
1772268123362,-28.032821,122.714493,129.640443,3.164365
1772268123366,-22.277155,92.149361,93.042860,8.284029
1772268123370,-27.170278,148.870162,127.353349,7.927753
1772268123374,-32.884877,134.159554,103.459796,5.332988
1772268123377,-33.626162,19.500111,12.140921,2.173635
1772268123381,-38.056081,-22.429007,5.860547,1.387356
1772268123385,-50.765207,45.995758,88.634000,2.106357
1772268123389,-57.905968,32.811628,64.053840,-5.173693
1772268123393,-55.488150,-187.782126,-158.315614,-20.501983
1772268123397,-51.709282,-326.767131,-288.523114,-30.380450
1772268123401,-55.414801,-106.899511,-58.887526,-19.108846
1772268123405,-61.270678,256.248394,315.099205,9.242979
1772268123409,-48.578052,81.050487,83.739095,-4.109639
1772268123413,-35.030806,204.246849,192.224929,3.436864
1772268123417,-30.679913,318.308937,291.641801,8.265645
1772268123420,-35.999307,289.048542,276.765941,11.622537
1772268123424,-44.868875,154.935672,159.226652,9.237538
1772268123428,-45.906857,59.447731,54.361050,-1.199858
1772268123432,-47.421547,60.750817,53.794360,-8.255371
1772268123436,-54.399923,114.884198,149.790410,0.404935
1772268123440,-57.869833,176.672207,252.505638,13.954022
1772268123444,-53.998753,146.084500,194.479875,7.344552
1772268123448,-36.621378,-5.784116,-30.912683,-19.921919
1772268123452,-18.915211,-20.470384,-79.858086,-33.289296
1772268123409,-48.578052,81.050487,83.739095,-4.109639
1772268123413,-35.030806,204.246849,192.224929,3.436864
1772268123417,-30.679913,318.308937,291.641801,8.265645
1772268123420,-35.999307,289.048542,276.765941,11.622537
1772268123424,-44.868875,154.935672,159.226652,9.237538
1772268123428,-45.906857,59.447731,54.361050,-1.199858
1772268123432,-47.421547,60.750817,53.794360,-8.255371
1772268123436,-54.399923,114.884198,149.790410,0.404935
1772268123440,-57.869833,176.672207,252.505638,13.954022
1772268123444,-53.998753,146.084500,194.479875,7.344552
1772268123448,-36.621378,-5.784116,-30.912683,-19.921919
1772268123452,-18.915211,-20.470384,-79.858086,-33.289296
1772268123456,-20.333509,126.280686,108.324452,-9.134762
1772268123459,-18.824178,144.892359,124.903533,-4.256713
1772268123463,-17.471532,181.198928,155.996019,4.400329
1772268123467,-21.797327,183.592695,160.048901,5.522693
1772268123471,-31.463580,210.877941,196.223440,3.555069
1772268123475,-35.961764,237.994035,228.047652,4.860764
1772268123479,-28.860368,172.199015,149.821240,-1.341857
1772268123483,-21.867213,80.006937,34.419028,-16.666321
1772268123487,-19.781764,124.985511,77.233005,-20.969578
1772268123491,-23.844119,271.984130,264.478927,-1.158431
1772268123495,-31.723467,252.235801,293.848629,20.597305
1772268123499,-26.724857,-20.720144,11.114006,13.876616
1772268123456,-20.333509,126.280686,108.324452,-9.134762
1772268123459,-18.824178,144.892359,124.903533,-4.256713
1772268123463,-17.471532,181.198928,155.996019,4.400329
1772268123467,-21.797327,183.592695,160.048901,5.522693
1772268123471,-31.463580,210.877941,196.223440,3.555069
1772268123475,-35.961764,237.994035,228.047652,4.860764
1772268123479,-28.860368,172.199015,149.821240,-1.341857
1772268123483,-21.867213,80.006937,34.419028,-16.666321
1772268123487,-19.781764,124.985511,77.233005,-20.969578
1772268123491,-23.844119,271.984130,264.478927,-1.158431
1772268123495,-31.723467,252.235801,293.848629,20.597305
1772268123499,-26.724857,-20.720144,11.114006,13.876616
1772268123502,-15.984119,-21.504017,15.731579,13.214956
1772268123506,-17.254878,109.581541,112.139329,6.700091
1772268123510,-20.523136,215.972512,192.354850,-0.123267
1772268123514,-20.669974,178.112988,151.648376,-0.529869
1772268123518,-13.996446,109.420845,89.635147,1.666764
1772268123522,-13.806006,87.994615,92.847678,7.430512
1772268123526,-22.178458,25.198209,74.030029,16.258673
1772268123530,-23.026067,-94.283178,-33.621318,19.337647
1772268123534,-16.854634,-120.440154,-115.783200,12.761490
1772268123538,-6.685240,-20.300946,-71.355722,3.604869
1772268123542,0.960197,145.834529,117.717337,12.460286
1772268123545,-3.400401,337.647263,371.856488,35.708399
1772268123502,-15.984119,-21.504017,15.731579,13.214956
1772268123506,-17.254878,109.581541,112.139329,6.700091
1772268123510,-20.523136,215.972512,192.354850,-0.123267
1772268123514,-20.669974,178.112988,151.648376,-0.529869
1772268123518,-13.996446,109.420845,89.635147,1.666764
1772268123522,-13.806006,87.994615,92.847678,7.430512
1772268123526,-22.178458,25.198209,74.030029,16.258673
1772268123530,-23.026067,-94.283178,-33.621318,19.337647
1772268123534,-16.854634,-120.440154,-115.783200,12.761490
1772268123538,-6.685240,-20.300946,-71.355722,3.604869
1772268123542,0.960197,145.834529,117.717337,12.460286
1772268123545,-3.400401,337.647263,371.856488,35.708399
1772268123596,12.745847,-8.842494,1.281016,12.092914
1772268123600,17.092044,143.789122,140.155887,28.611239
1772268123604,19.352654,31.628413,14.058399,28.643606
1772268123608,13.815212,-72.591786,-109.685375,14.484605
1772268123612,2.394467,-42.600754,-80.271525,6.409096
1772268123616,-11.738398,-7.266409,-15.223949,10.978356
1772268123620,-16.724675,-77.830848,-58.072965,17.070066
1772268123624,-11.466390,-201.057527,-187.452996,13.862756
1772268123627,3.828403,-255.672367,-267.060855,5.045674
1772268123631,26.170101,-307.619037,-301.283935,11.257756
1772268123635,37.671416,-352.905034,-298.105622,33.239940
1772268123639,27.155165,-202.220456,-158.341205,44.722976
1772268123643,5.177797,-5.456260,-17.173908,34.818906
1772268123647,1.780710,-2.223879,-41.643633,17.734805
1772268123651,14.265377,-83.401601,-128.642035,8.252185
1772268123655,12.833071,-116.374513,-172.646032,2.889506
1772268123659,6.582289,-127.963807,-189.704295,-6.398817
1772268123663,6.356309,-163.857740,-203.617493,-9.284835
1772268123666,5.622506,-204.821670,-209.247677,1.685986
1772268123670,12.705447,-252.303615,-250.883978,11.965132
1772268123674,27.132058,-403.153739,-426.174354,4.005224
1772268123678,32.234642,-590.296907,-622.343237,-13.167565
1772268123682,22.595729,-476.954592,-487.077482,-6.674150
1772268123686,10.256110,-86.357068,-68.279949,24.408501
1772268123690,10.873819,-217.669418,-247.166126,22.988520
1772268123694,11.849218,-221.715582,-250.424477,19.085146
1772268123698,23.434274,-137.380131,-179.085056,8.583163
1772268123702,35.363546,-43.582106,-93.374726,11.153601
1772268123706,40.774759,-102.828168,-148.466310,24.887853
1772268123709,38.799516,-238.035229,-288.162178,22.598241
1772268123713,30.104131,-292.510752,-337.335204,8.940639
1772268123717,23.035107,-211.405257,-221.009190,9.162650
1772268123721,23.614912,-155.795740,-120.928264,27.047451
1772268123725,27.079738,-272.378367,-232.759530,33.052421
1772268123729,31.249688,-383.293331,-412.526987,8.330841
1772268123733,25.758303,-305.181330,-396.399890,-14.377836
1772268123596,12.745847,-8.842494,1.281016,12.092914
1772268123600,17.092044,143.789122,140.155887,28.611239
1772268123604,19.352654,31.628413,14.058399,28.643606
1772268123608,13.815212,-72.591786,-109.685375,14.484605
1772268123612,2.394467,-42.600754,-80.271525,6.409096
1772268123616,-11.738398,-7.266409,-15.223949,10.978356
1772268123620,-16.724675,-77.830848,-58.072965,17.070066
1772268123624,-11.466390,-201.057527,-187.452996,13.862756
1772268123627,3.828403,-255.672367,-267.060855,5.045674
1772268123631,26.170101,-307.619037,-301.283935,11.257756
1772268123635,37.671416,-352.905034,-298.105622,33.239940
1772268123639,27.155165,-202.220456,-158.341205,44.722976
1772268123643,5.177797,-5.456260,-17.173908,34.818906
1772268123647,1.780710,-2.223879,-41.643633,17.734805
1772268123651,14.265377,-83.401601,-128.642035,8.252185
1772268123655,12.833071,-116.374513,-172.646032,2.889506
1772268123659,6.582289,-127.963807,-189.704295,-6.398817
1772268123663,6.356309,-163.857740,-203.617493,-9.284835
1772268123666,5.622506,-204.821670,-209.247677,1.685986
1772268123670,12.705447,-252.303615,-250.883978,11.965132
1772268123674,27.132058,-403.153739,-426.174354,4.005224
1772268123678,32.234642,-590.296907,-622.343237,-13.167565
1772268123682,22.595729,-476.954592,-487.077482,-6.674150
1772268123686,10.256110,-86.357068,-68.279949,24.408501
1772268123690,10.873819,-217.669418,-247.166126,22.988520
1772268123694,11.849218,-221.715582,-250.424477,19.085146
1772268123698,23.434274,-137.380131,-179.085056,8.583163
1772268123702,35.363546,-43.582106,-93.374726,11.153601
1772268123706,40.774759,-102.828168,-148.466310,24.887853
1772268123709,38.799516,-238.035229,-288.162178,22.598241
1772268123713,30.104131,-292.510752,-337.335204,8.940639
1772268123717,23.035107,-211.405257,-221.009190,9.162650
1772268123721,23.614912,-155.795740,-120.928264,27.047451
1772268123725,27.079738,-272.378367,-232.759530,33.052421
1772268123729,31.249688,-383.293331,-412.526987,8.330841
1772268123733,25.758303,-305.181330,-396.399890,-14.377836
1772268123737,8.456211,-58.777844,-91.340975,15.479122
1772268123741,-2.698498,-48.720032,-70.908273,4.949447
1772268123745,8.960805,-6.310561,-32.508022,-5.129529
1772268123749,40.943791,-39.108965,-55.371305,9.970970
1772268123752,50.174074,-85.279246,-68.710584,36.769941
1772268123756,26.613279,-76.804752,-39.615918,47.867079
1772268123760,0.952409,-78.792671,-66.326730,29.339900
1772268123764,-12.664832,-182.928669,-204.982426,-5.826061
1772268123768,-16.169303,-327.800553,-329.694517,-34.194553
1772268123772,-18.419755,-256.917510,-202.215918,-39.348305
1772268123776,-20.141938,24.321692,95.115129,-10.874235
1772268123780,-17.211198,129.229944,140.984203,15.934859
1772268123737,8.456211,-58.777844,-91.340975,15.479122
1772268123741,-2.698498,-48.720032,-70.908273,4.949447
1772268123745,8.960805,-6.310561,-32.508022,-5.129529
1772268123749,40.943791,-39.108965,-55.371305,9.970970
1772268123752,50.174074,-85.279246,-68.710584,36.769941
1772268123756,26.613279,-76.804752,-39.615918,47.867079
1772268123760,0.952409,-78.792671,-66.326730,29.339900
1772268123764,-12.664832,-182.928669,-204.982426,-5.826061
1772268123768,-16.169303,-327.800553,-329.694517,-34.194553
1772268123772,-18.419755,-256.917510,-202.215918,-39.348305
1772268123776,-20.141938,24.321692,95.115129,-10.874235
1772268123780,-17.211198,129.229944,140.984203,15.934859
1772268123784,-7.320753,88.325123,89.233920,11.853842
1772268123788,-1.699899,152.963146,144.221172,17.299402
1772268123791,9.643683,249.770195,225.409835,23.502124
1772268123795,27.045225,169.588535,156.158837,23.533230
1772268123799,31.542577,-4.466571,9.573071,6.307725
1772268123803,15.365448,-45.575505,-4.289471,-11.596707
1772268123807,1.934484,39.006082,102.526502,-5.963983
1772268123811,2.628634,25.882373,107.079535,11.193089
1772268123815,18.940448,-151.227711,-69.303703,11.970371
1772268123819,47.969666,-228.089473,-180.711497,-0.832598
1772268123823,57.091100,-37.302267,-12.703458,-5.663408
1772268123827,37.670433,298.696763,343.111662,13.481110
1772268123784,-7.320753,88.325123,89.233920,11.853842
1772268123788,-1.699899,152.963146,144.221172,17.299402
1772268123791,9.643683,249.770195,225.409835,23.502124
1772268123795,27.045225,169.588535,156.158837,23.533230
1772268123799,31.542577,-4.466571,9.573071,6.307725
1772268123803,15.365448,-45.575505,-4.289471,-11.596707
1772268123807,1.934484,39.006082,102.526502,-5.963983
1772268123811,2.628634,25.882373,107.079535,11.193089
1772268123815,18.940448,-151.227711,-69.303703,11.970371
1772268123819,47.969666,-228.089473,-180.711497,-0.832598
1772268123823,57.091100,-37.302267,-12.703458,-5.663408
1772268123827,37.670433,298.696763,343.111662,13.481110
1772268123784,-7.320753,88.325123,89.233920,11.853842
1772268123788,-1.699899,152.963146,144.221172,17.299402
1772268123791,9.643683,249.770195,225.409835,23.502124
1772268123795,27.045225,169.588535,156.158837,23.533230
1772268123799,31.542577,-4.466571,9.573071,6.307725
1772268123803,15.365448,-45.575505,-4.289471,-11.596707
1772268123807,1.934484,39.006082,102.526502,-5.963983
1772268123811,2.628634,25.882373,107.079535,11.193089
1772268123815,18.940448,-151.227711,-69.303703,11.970371
1772268123819,47.969666,-228.089473,-180.711497,-0.832598
1772268123823,57.091100,-37.302267,-12.703458,-5.663408
1772268123827,37.670433,298.696763,343.111662,13.481110
1772268123784,-7.320753,88.325123,89.233920,11.853842
1772268123788,-1.699899,152.963146,144.221172,17.299402
1772268123791,9.643683,249.770195,225.409835,23.502124
1772268123795,27.045225,169.588535,156.158837,23.533230
1772268123799,31.542577,-4.466571,9.573071,6.307725
1772268123803,15.365448,-45.575505,-4.289471,-11.596707
1772268123807,1.934484,39.006082,102.526502,-5.963983
1772268123811,2.628634,25.882373,107.079535,11.193089
1772268123815,18.940448,-151.227711,-69.303703,11.970371
1772268123819,47.969666,-228.089473,-180.711497,-0.832598
1772268123823,57.091100,-37.302267,-12.703458,-5.663408
1772268123827,37.670433,298.696763,343.111662,13.481110
1772268123877,-13.302353,-112.869034,-25.583257,-8.690617
1772268123881,-1.638822,47.668715,102.941972,-10.151691
1772268123885,-5.472370,152.362210,187.645081,-4.213225
1772268123889,-18.065220,137.966888,175.245565,-6.882295
1772268123893,-30.274291,178.591833,221.272283,-18.472052
1772268123897,-29.786131,212.728882,265.227696,-33.106184
1772268123901,-21.360144,51.072945,117.585054,-46.725142
1772268123905,-30.889525,-185.813005,-123.537905,-57.729661
1772268123909,-57.604284,-146.929780,-112.391902,-66.165215
1772268123913,-73.323110,139.631699,177.444723,-51.633393
1772268123916,-60.173118,331.176900,408.198331,-21.688393
1772268123920,-32.185777,272.445772,333.030567,-25.717491
1772268123877,-13.302353,-112.869034,-25.583257,-8.690617
1772268123881,-1.638822,47.668715,102.941972,-10.151691
1772268123885,-5.472370,152.362210,187.645081,-4.213225
1772268123889,-18.065220,137.966888,175.245565,-6.882295
1772268123893,-30.274291,178.591833,221.272283,-18.472052
1772268123897,-29.786131,212.728882,265.227696,-33.106184
1772268123901,-21.360144,51.072945,117.585054,-46.725142
1772268123905,-30.889525,-185.813005,-123.537905,-57.729661
1772268123909,-57.604284,-146.929780,-112.391902,-66.165215
1772268123913,-73.323110,139.631699,177.444723,-51.633393
1772268123916,-60.173118,331.176900,408.198331,-21.688393
1772268123920,-32.185777,272.445772,333.030567,-25.717491
1772268123924,-2.491506,249.976340,272.168154,-29.173285
1772268123928,15.404726,215.796107,237.605432,-8.023906
1772268123932,-10.550243,130.873532,168.586342,-10.266391
1772268123936,-49.005436,97.225877,131.694806,-27.916142
1772268123940,-26.868062,168.880581,177.885544,-12.343329
1772268123944,18.501564,213.161958,222.759129,13.492892
1772268123948,9.498480,129.105562,180.321533,1.317190
1772268123952,-10.547124,0.131561,81.665819,-13.308093
1772268123956,10.336705,-50.058031,-1.615290,-2.808515
1772268123959,17.183965,-58.547587,-66.616925,-1.621390
1772268123963,-11.195172,-124.619118,-112.537801,-2.347873
1772268123967,-8.792196,-90.491142,4.725230,24.727492
1772268123924,-2.491506,249.976340,272.168154,-29.173285
1772268123928,15.404726,215.796107,237.605432,-8.023906
1772268123932,-10.550243,130.873532,168.586342,-10.266391
1772268123936,-49.005436,97.225877,131.694806,-27.916142
1772268123940,-26.868062,168.880581,177.885544,-12.343329
1772268123944,18.501564,213.161958,222.759129,13.492892
1772268123948,9.498480,129.105562,180.321533,1.317190
1772268123952,-10.547124,0.131561,81.665819,-13.308093
1772268123956,10.336705,-50.058031,-1.615290,-2.808515
1772268123959,17.183965,-58.547587,-66.616925,-1.621390
1772268123963,-11.195172,-124.619118,-112.537801,-2.347873
1772268123967,-8.792196,-90.491142,4.725230,24.727492
1772268123877,-13.302353,-112.869034,-25.583257,-8.690617
1772268123881,-1.638822,47.668715,102.941972,-10.151691
1772268123885,-5.472370,152.362210,187.645081,-4.213225
1772268123889,-18.065220,137.966888,175.245565,-6.882295
1772268123893,-30.274291,178.591833,221.272283,-18.472052
1772268123897,-29.786131,212.728882,265.227696,-33.106184
1772268123901,-21.360144,51.072945,117.585054,-46.725142
1772268123905,-30.889525,-185.813005,-123.537905,-57.729661
1772268123909,-57.604284,-146.929780,-112.391902,-66.165215
1772268123913,-73.323110,139.631699,177.444723,-51.633393
1772268123916,-60.173118,331.176900,408.198331,-21.688393
1772268123920,-32.185777,272.445772,333.030567,-25.717491
1772268123877,-13.302353,-112.869034,-25.583257,-8.690617
1772268123881,-1.638822,47.668715,102.941972,-10.151691
1772268123885,-5.472370,152.362210,187.645081,-4.213225
1772268123889,-18.065220,137.966888,175.245565,-6.882295
1772268123893,-30.274291,178.591833,221.272283,-18.472052
1772268123897,-29.786131,212.728882,265.227696,-33.106184
1772268123901,-21.360144,51.072945,117.585054,-46.725142
1772268123905,-30.889525,-185.813005,-123.537905,-57.729661
1772268123909,-57.604284,-146.929780,-112.391902,-66.165215
1772268123913,-73.323110,139.631699,177.444723,-51.633393
1772268123916,-60.173118,331.176900,408.198331,-21.688393
1772268123920,-32.185777,272.445772,333.030567,-25.717491
1772268123924,-2.491506,249.976340,272.168154,-29.173285
1772268123928,15.404726,215.796107,237.605432,-8.023906
1772268123932,-10.550243,130.873532,168.586342,-10.266391
1772268123936,-49.005436,97.225877,131.694806,-27.916142
1772268123940,-26.868062,168.880581,177.885544,-12.343329
1772268123944,18.501564,213.161958,222.759129,13.492892
1772268123948,9.498480,129.105562,180.321533,1.317190
1772268123952,-10.547124,0.131561,81.665819,-13.308093
1772268123956,10.336705,-50.058031,-1.615290,-2.808515
1772268123959,17.183965,-58.547587,-66.616925,-1.621390
1772268123963,-11.195172,-124.619118,-112.537801,-2.347873
1772268123967,-8.792196,-90.491142,4.725230,24.727492
1772268123924,-2.491506,249.976340,272.168154,-29.173285
1772268123928,15.404726,215.796107,237.605432,-8.023906
1772268123932,-10.550243,130.873532,168.586342,-10.266391
1772268123936,-49.005436,97.225877,131.694806,-27.916142
1772268123940,-26.868062,168.880581,177.885544,-12.343329
1772268123944,18.501564,213.161958,222.759129,13.492892
1772268123948,9.498480,129.105562,180.321533,1.317190
1772268123952,-10.547124,0.131561,81.665819,-13.308093
1772268123956,10.336705,-50.058031,-1.615290,-2.808515
1772268123959,17.183965,-58.547587,-66.616925,-1.621390
1772268123963,-11.195172,-124.619118,-112.537801,-2.347873
1772268123967,-8.792196,-90.491142,4.725230,24.727492
1772268123924,-2.491506,249.976340,272.168154,-29.173285
1772268123928,15.404726,215.796107,237.605432,-8.023906
1772268123932,-10.550243,130.873532,168.586342,-10.266391
1772268123936,-49.005436,97.225877,131.694806,-27.916142
1772268123940,-26.868062,168.880581,177.885544,-12.343329
1772268123944,18.501564,213.161958,222.759129,13.492892
1772268123948,9.498480,129.105562,180.321533,1.317190
1772268123952,-10.547124,0.131561,81.665819,-13.308093
1772268123956,10.336705,-50.058031,-1.615290,-2.808515
1772268123959,17.183965,-58.547587,-66.616925,-1.621390
1772268123963,-11.195172,-124.619118,-112.537801,-2.347873
1772268123967,-8.792196,-90.491142,4.725230,24.727492
1772268123924,-2.491506,249.976340,272.168154,-29.173285
1772268123928,15.404726,215.796107,237.605432,-8.023906
1772268123932,-10.550243,130.873532,168.586342,-10.266391
1772268123936,-49.005436,97.225877,131.694806,-27.916142
1772268123940,-26.868062,168.880581,177.885544,-12.343329
1772268123944,18.501564,213.161958,222.759129,13.492892
1772268123948,9.498480,129.105562,180.321533,1.317190
1772268123952,-10.547124,0.131561,81.665819,-13.308093
1772268123956,10.336705,-50.058031,-1.615290,-2.808515
1772268123959,17.183965,-58.547587,-66.616925,-1.621390
1772268123963,-11.195172,-124.619118,-112.537801,-2.347873
1772268123967,-8.792196,-90.491142,4.725230,24.727492
1772268124112,-6.213623,98.712914,126.347894,-24.130198
1772268124116,-6.651851,121.887480,151.541931,-17.061212
1772268124120,-9.397621,207.662309,232.516087,-1.911301
1772268124123,-5.961679,215.668512,247.878284,1.330609
1772268124127,-1.545350,73.866811,118.178419,-7.552915
1772268124131,-1.139418,-106.241792,-71.182347,-13.532191
1772268124135,-11.563579,-181.079491,-163.804351,-16.529970
1772268124139,-27.782267,-86.484403,-58.851136,-28.363046
1772268124143,-37.298105,-3.801784,74.188935,-30.862278
1772268124147,-30.624793,-51.573587,48.988108,-10.409625
1772268124151,-12.276218,-136.156633,-102.936844,-3.651199
1772268124155,1.550434,-185.928705,-237.915760,-34.009475
1772268124112,-6.213623,98.712914,126.347894,-24.130198
1772268124116,-6.651851,121.887480,151.541931,-17.061212
1772268124120,-9.397621,207.662309,232.516087,-1.911301
1772268124123,-5.961679,215.668512,247.878284,1.330609
1772268124127,-1.545350,73.866811,118.178419,-7.552915
1772268124131,-1.139418,-106.241792,-71.182347,-13.532191
1772268124135,-11.563579,-181.079491,-163.804351,-16.529970
1772268124139,-27.782267,-86.484403,-58.851136,-28.363046
1772268124143,-37.298105,-3.801784,74.188935,-30.862278
1772268124147,-30.624793,-51.573587,48.988108,-10.409625
1772268124151,-12.276218,-136.156633,-102.936844,-3.651199
1772268124155,1.550434,-185.928705,-237.915760,-34.009475
1772268124112,-6.213623,98.712914,126.347894,-24.130198
1772268124116,-6.651851,121.887480,151.541931,-17.061212
1772268124120,-9.397621,207.662309,232.516087,-1.911301
1772268124123,-5.961679,215.668512,247.878284,1.330609
1772268124127,-1.545350,73.866811,118.178419,-7.552915
1772268124131,-1.139418,-106.241792,-71.182347,-13.532191
1772268124135,-11.563579,-181.079491,-163.804351,-16.529970
1772268124139,-27.782267,-86.484403,-58.851136,-28.363046
1772268124143,-37.298105,-3.801784,74.188935,-30.862278
1772268124147,-30.624793,-51.573587,48.988108,-10.409625
1772268124151,-12.276218,-136.156633,-102.936844,-3.651199
1772268124155,1.550434,-185.928705,-237.915760,-34.009475
1772268124112,-6.213623,98.712914,126.347894,-24.130198
1772268124116,-6.651851,121.887480,151.541931,-17.061212
1772268124120,-9.397621,207.662309,232.516087,-1.911301
1772268124123,-5.961679,215.668512,247.878284,1.330609
1772268124127,-1.545350,73.866811,118.178419,-7.552915
1772268124131,-1.139418,-106.241792,-71.182347,-13.532191
1772268124135,-11.563579,-181.079491,-163.804351,-16.529970
1772268124139,-27.782267,-86.484403,-58.851136,-28.363046
1772268124143,-37.298105,-3.801784,74.188935,-30.862278
1772268124147,-30.624793,-51.573587,48.988108,-10.409625
1772268124151,-12.276218,-136.156633,-102.936844,-3.651199
1772268124155,1.550434,-185.928705,-237.915760,-34.009475
1772268124205,-15.911368,-189.113286,-120.413707,-4.196324
1772268124209,-26.306444,-128.523043,-85.804286,-11.393909
1772268124213,-30.896753,101.297667,96.631856,-14.640795
1772268124217,-38.352020,147.084830,125.111479,-18.018149
1772268124221,-46.307941,53.624031,26.567265,-29.971190
1772268124225,-35.286849,19.549659,-9.100954,-42.893211
1772268124229,-13.699097,3.889412,4.883927,-37.081796
1772268124233,-21.351246,-104.838031,-56.150465,-16.768404
1772268124237,-39.442335,-189.352283,-150.423403,-10.380947
1772268124241,-21.000703,-155.796728,-188.304500,-18.140181
1772268124245,10.627707,-94.243243,-156.709705,-21.483088
1772268124248,3.458396,71.599085,52.649839,-12.696406
1772268124205,-15.911368,-189.113286,-120.413707,-4.196324
1772268124209,-26.306444,-128.523043,-85.804286,-11.393909
1772268124213,-30.896753,101.297667,96.631856,-14.640795
1772268124217,-38.352020,147.084830,125.111479,-18.018149
1772268124221,-46.307941,53.624031,26.567265,-29.971190
1772268124225,-35.286849,19.549659,-9.100954,-42.893211
1772268124229,-13.699097,3.889412,4.883927,-37.081796
1772268124233,-21.351246,-104.838031,-56.150465,-16.768404
1772268124237,-39.442335,-189.352283,-150.423403,-10.380947
1772268124241,-21.000703,-155.796728,-188.304500,-18.140181
1772268124245,10.627707,-94.243243,-156.709705,-21.483088
1772268124248,3.458396,71.599085,52.649839,-12.696406
1772268124205,-15.911368,-189.113286,-120.413707,-4.196324
1772268124209,-26.306444,-128.523043,-85.804286,-11.393909
1772268124213,-30.896753,101.297667,96.631856,-14.640795
1772268124217,-38.352020,147.084830,125.111479,-18.018149
1772268124221,-46.307941,53.624031,26.567265,-29.971190
1772268124225,-35.286849,19.549659,-9.100954,-42.893211
1772268124229,-13.699097,3.889412,4.883927,-37.081796
1772268124233,-21.351246,-104.838031,-56.150465,-16.768404
1772268124237,-39.442335,-189.352283,-150.423403,-10.380947
1772268124241,-21.000703,-155.796728,-188.304500,-18.140181
1772268124245,10.627707,-94.243243,-156.709705,-21.483088
1772268124248,3.458396,71.599085,52.649839,-12.696406
1772268124205,-15.911368,-189.113286,-120.413707,-4.196324
1772268124209,-26.306444,-128.523043,-85.804286,-11.393909
1772268124213,-30.896753,101.297667,96.631856,-14.640795
1772268124217,-38.352020,147.084830,125.111479,-18.018149
1772268124221,-46.307941,53.624031,26.567265,-29.971190
1772268124225,-35.286849,19.549659,-9.100954,-42.893211
1772268124229,-13.699097,3.889412,4.883927,-37.081796
1772268124233,-21.351246,-104.838031,-56.150465,-16.768404
1772268124237,-39.442335,-189.352283,-150.423403,-10.380947
1772268124241,-21.000703,-155.796728,-188.304500,-18.140181
1772268124245,10.627707,-94.243243,-156.709705,-21.483088
1772268124248,3.458396,71.599085,52.649839,-12.696406
1772268124299,-3.390080,191.880339,115.842722,-22.365437
1772268124303,-17.996159,164.073410,90.761498,-22.177377
1772268124307,-18.140990,31.137437,-15.804742,-16.554766
1772268124311,-4.419889,-31.346165,-68.525271,-20.326077
1772268124315,-9.516334,78.736424,34.327092,-18.391682
1772268124319,-18.691868,207.281857,171.623028,-5.894992
1772268124323,-3.409202,126.467573,112.984772,-1.073304
1772268124327,13.602803,-102.276089,-118.132481,-12.163769
1772268124330,10.482484,-131.605280,-178.300644,-25.190411
1772268124334,3.160282,99.966110,58.901680,-15.905729
1772268124338,-4.071912,279.339984,303.530531,14.755323
1772268124342,-24.802872,227.110905,280.199770,27.883756
1772268124299,-3.390080,191.880339,115.842722,-22.365437
1772268124303,-17.996159,164.073410,90.761498,-22.177377
1772268124307,-18.140990,31.137437,-15.804742,-16.554766
1772268124311,-4.419889,-31.346165,-68.525271,-20.326077
1772268124315,-9.516334,78.736424,34.327092,-18.391682
1772268124319,-18.691868,207.281857,171.623028,-5.894992
1772268124323,-3.409202,126.467573,112.984772,-1.073304
1772268124327,13.602803,-102.276089,-118.132481,-12.163769
1772268124330,10.482484,-131.605280,-178.300644,-25.190411
1772268124334,3.160282,99.966110,58.901680,-15.905729
1772268124338,-4.071912,279.339984,303.530531,14.755323
1772268124342,-24.802872,227.110905,280.199770,27.883756
1772268124299,-3.390080,191.880339,115.842722,-22.365437
1772268124303,-17.996159,164.073410,90.761498,-22.177377
1772268124307,-18.140990,31.137437,-15.804742,-16.554766
1772268124311,-4.419889,-31.346165,-68.525271,-20.326077
1772268124315,-9.516334,78.736424,34.327092,-18.391682
1772268124319,-18.691868,207.281857,171.623028,-5.894992
1772268124323,-3.409202,126.467573,112.984772,-1.073304
1772268124327,13.602803,-102.276089,-118.132481,-12.163769
1772268124330,10.482484,-131.605280,-178.300644,-25.190411
1772268124334,3.160282,99.966110,58.901680,-15.905729
1772268124338,-4.071912,279.339984,303.530531,14.755323
1772268124342,-24.802872,227.110905,280.199770,27.883756
1772268124299,-3.390080,191.880339,115.842722,-22.365437
1772268124303,-17.996159,164.073410,90.761498,-22.177377
1772268124307,-18.140990,31.137437,-15.804742,-16.554766
1772268124311,-4.419889,-31.346165,-68.525271,-20.326077
1772268124315,-9.516334,78.736424,34.327092,-18.391682
1772268124319,-18.691868,207.281857,171.623028,-5.894992
1772268124323,-3.409202,126.467573,112.984772,-1.073304
1772268124327,13.602803,-102.276089,-118.132481,-12.163769
1772268124330,10.482484,-131.605280,-178.300644,-25.190411
1772268124334,3.160282,99.966110,58.901680,-15.905729
1772268124338,-4.071912,279.339984,303.530531,14.755323
1772268124342,-24.802872,227.110905,280.199770,27.883756
1772268124346,-37.065565,172.816081,161.257974,-7.434575
1772268124350,-24.003247,252.366081,228.894413,-9.445766
1772268124354,3.118968,237.617375,226.781616,1.355755
1772268124358,15.610938,288.047570,272.322608,9.544291
1772268124362,18.149013,355.926102,318.778504,-0.137061
1772268124366,11.200647,300.958671,276.678217,-11.360541
1772268124370,-2.177413,184.209627,218.811601,-0.589549
1772268124373,-11.624503,125.335353,209.763123,20.240185
1772268124377,-19.068737,86.273747,159.421084,25.394672
1772268124381,-11.223676,-23.986287,1.077850,14.542936
1772268124385,8.173894,-77.470924,-71.145403,-2.676792
1772268124389,18.246223,137.327683,177.380308,-7.150700
1772268124393,15.216511,263.026960,302.813778,20.371556
1772268124397,27.315525,227.201227,232.256559,30.081728
1772268124401,26.646849,-131.324466,-154.111645,26.693855
1772268124405,5.750072,-571.742215,-611.051081,23.511986
1772268124409,-5.508555,-291.842279,-315.621586,24.430249
1772268124412,1.352641,193.666709,208.774523,21.555565
1772268124416,37.431490,227.422754,262.919706,21.503744
1772268124420,86.655443,185.624871,208.224646,29.596349
1772268124424,86.524318,202.924907,218.709403,35.587367
1772268124428,42.943559,58.214975,107.311454,32.751620
1772268124432,24.413387,-112.858069,-45.950644,28.287284
1772268124436,34.414207,-23.942521,1.890331,21.453721
1772268124440,24.184777,184.256902,169.079450,14.499189
1772268124444,8.946650,252.574980,232.022249,21.834280
1772268124448,29.922945,170.879875,143.944465,30.264801
1772268124452,61.529165,33.239367,-9.264769,28.241048
1772268124455,71.150855,-59.583912,-93.705388,27.021784
1772268124459,50.229051,-36.313567,-44.085168,20.744408
1772268124463,13.229167,-20.455256,-23.540508,8.358364
1772268124467,11.269202,-191.956660,-224.023440,2.461360
1772268124471,39.058872,-505.853886,-554.826324,1.282535
1772268124475,41.637770,-644.353155,-657.657111,8.856494
1772268124479,9.334275,-369.939869,-346.125573,32.419960
1772268124483,-14.615990,-62.517053,-65.124477,44.144239
1772268124393,15.216511,263.026960,302.813778,20.371556
1772268124397,27.315525,227.201227,232.256559,30.081728
1772268124401,26.646849,-131.324466,-154.111645,26.693855
1772268124405,5.750072,-571.742215,-611.051081,23.511986
1772268124409,-5.508555,-291.842279,-315.621586,24.430249
1772268124412,1.352641,193.666709,208.774523,21.555565
1772268124416,37.431490,227.422754,262.919706,21.503744
1772268124420,86.655443,185.624871,208.224646,29.596349
1772268124424,86.524318,202.924907,218.709403,35.587367
1772268124428,42.943559,58.214975,107.311454,32.751620
1772268124432,24.413387,-112.858069,-45.950644,28.287284
1772268124436,34.414207,-23.942521,1.890331,21.453721
1772268124440,24.184777,184.256902,169.079450,14.499189
1772268124444,8.946650,252.574980,232.022249,21.834280
1772268124448,29.922945,170.879875,143.944465,30.264801
1772268124452,61.529165,33.239367,-9.264769,28.241048
1772268124455,71.150855,-59.583912,-93.705388,27.021784
1772268124459,50.229051,-36.313567,-44.085168,20.744408
1772268124463,13.229167,-20.455256,-23.540508,8.358364
1772268124467,11.269202,-191.956660,-224.023440,2.461360
1772268124471,39.058872,-505.853886,-554.826324,1.282535
1772268124475,41.637770,-644.353155,-657.657111,8.856494
1772268124479,9.334275,-369.939869,-346.125573,32.419960
1772268124483,-14.615990,-62.517053,-65.124477,44.144239
1772268124487,12.887567,-285.842729,-331.937612,8.849988
1772268124491,38.131044,-334.095859,-396.721746,5.747558
1772268124495,27.371390,-284.856566,-383.565498,8.478449
1772268124498,2.803455,-290.371699,-401.607836,7.299387
1772268124502,1.454740,-465.957233,-551.207918,-2.145877
1772268124506,15.519661,-625.715011,-682.586202,-10.811138
1772268124510,14.162611,-557.381268,-604.812272,-8.542492
1772268124514,-4.051687,-411.696162,-424.319519,0.936220
1772268124518,-0.878395,-516.720690,-483.249223,3.154930
1772268124522,14.757915,-805.598347,-803.217697,-4.586540
1772268124526,3.098633,-874.176135,-948.354039,-20.740578
1772268124530,-18.835395,-534.928248,-636.721247,-23.821076
1772268124534,-1.906468,-441.358832,-547.234176,-2.693015
1772268124537,1.800610,-390.264291,-495.562725,15.600897
1772268124541,-3.049341,-305.893733,-412.037453,17.433810
1772268124545,-8.971989,-344.308723,-416.768168,14.883964
1772268124549,-5.895759,-447.353644,-482.124321,14.481972
1772268124553,-5.040191,-505.642401,-536.270791,9.836688
1772268124557,-16.216572,-571.202184,-612.310857,-0.685329
1772268124561,-27.232630,-621.461320,-656.392590,-6.309827
1772268124565,-23.776811,-518.648772,-516.547621,6.405333
1772268124569,-1.352979,-300.952133,-277.364832,22.731803
1772268124573,23.771966,-245.425911,-266.005335,19.579394
1772268124577,27.675257,-380.179100,-480.941326,-3.584193
1772268124534,-1.906468,-441.358832,-547.234176,-2.693015
1772268124537,1.800610,-390.264291,-495.562725,15.600897
1772268124541,-3.049341,-305.893733,-412.037453,17.433810
1772268124545,-8.971989,-344.308723,-416.768168,14.883964
1772268124549,-5.895759,-447.353644,-482.124321,14.481972
1772268124553,-5.040191,-505.642401,-536.270791,9.836688
1772268124557,-16.216572,-571.202184,-612.310857,-0.685329
1772268124561,-27.232630,-621.461320,-656.392590,-6.309827
1772268124565,-23.776811,-518.648772,-516.547621,6.405333
1772268124569,-1.352979,-300.952133,-277.364832,22.731803
1772268124573,23.771966,-245.425911,-266.005335,19.579394
1772268124577,27.675257,-380.179100,-480.941326,-3.584193
1772268124580,16.822735,-201.534191,-254.967746,11.284302
1772268124584,13.320895,-128.769980,-189.954539,3.316171
1772268124588,-1.432539,-52.415900,-134.119421,-8.610439
1772268124592,-20.081302,-86.780870,-173.404755,-16.163043
1772268124596,-42.763705,-150.274897,-208.867524,-10.478766
1772268124600,-50.331979,-130.839651,-149.918409,3.110245
1772268124604,-34.655691,-159.255850,-154.388107,12.296392
1772268124608,-4.626315,-365.078667,-364.620278,2.487822
1772268124612,24.059052,-491.723332,-522.015822,-20.624221
1772268124616,31.082909,-312.881485,-347.800754,-26.040349
1772268124620,18.253118,0.511429,15.653361,-3.721461
1772268124623,5.616710,204.896021,237.445296,18.211677
1772268124580,16.822735,-201.534191,-254.967746,11.284302
1772268124584,13.320895,-128.769980,-189.954539,3.316171
1772268124588,-1.432539,-52.415900,-134.119421,-8.610439
1772268124592,-20.081302,-86.780870,-173.404755,-16.163043
1772268124596,-42.763705,-150.274897,-208.867524,-10.478766
1772268124600,-50.331979,-130.839651,-149.918409,3.110245
1772268124604,-34.655691,-159.255850,-154.388107,12.296392
1772268124608,-4.626315,-365.078667,-364.620278,2.487822
1772268124612,24.059052,-491.723332,-522.015822,-20.624221
1772268124616,31.082909,-312.881485,-347.800754,-26.040349
1772268124620,18.253118,0.511429,15.653361,-3.721461
1772268124623,5.616710,204.896021,237.445296,18.211677
1772268124627,-6.824649,59.872139,34.104615,-2.105519
1772268124631,5.058026,80.792795,47.565119,3.062565
1772268124635,12.308121,26.918629,0.409451,2.070042
1772268124639,-4.419184,-48.915021,-64.402698,-6.296053
1772268124643,-34.046700,-65.447028,-91.394596,-21.037345
1772268124647,-60.210063,-59.345030,-87.528114,-33.444794
1772268124651,-70.357895,-88.458288,-67.414647,-33.717181
1772268124655,-53.778493,-81.589338,5.439162,-17.643927
1772268124659,-13.314975,-30.706589,49.636097,-2.345541
1772268124662,15.683556,-102.418067,-92.513254,-10.391262
1772268124666,6.745491,-211.215803,-244.736154,-35.127385
1772268124670,-9.423158,-24.820047,-39.556398,-40.196771
1772268124627,-6.824649,59.872139,34.104615,-2.105519
1772268124631,5.058026,80.792795,47.565119,3.062565
1772268124635,12.308121,26.918629,0.409451,2.070042
1772268124639,-4.419184,-48.915021,-64.402698,-6.296053
1772268124643,-34.046700,-65.447028,-91.394596,-21.037345
1772268124647,-60.210063,-59.345030,-87.528114,-33.444794
1772268124651,-70.357895,-88.458288,-67.414647,-33.717181
1772268124655,-53.778493,-81.589338,5.439162,-17.643927
1772268124659,-13.314975,-30.706589,49.636097,-2.345541
1772268124662,15.683556,-102.418067,-92.513254,-10.391262
1772268124666,6.745491,-211.215803,-244.736154,-35.127385
1772268124670,-9.423158,-24.820047,-39.556398,-40.196771
1772268124627,-6.824649,59.872139,34.104615,-2.105519
1772268124631,5.058026,80.792795,47.565119,3.062565
1772268124635,12.308121,26.918629,0.409451,2.070042
1772268124639,-4.419184,-48.915021,-64.402698,-6.296053
1772268124643,-34.046700,-65.447028,-91.394596,-21.037345
1772268124647,-60.210063,-59.345030,-87.528114,-33.444794
1772268124651,-70.357895,-88.458288,-67.414647,-33.717181
1772268124655,-53.778493,-81.589338,5.439162,-17.643927
1772268124659,-13.314975,-30.706589,49.636097,-2.345541
1772268124662,15.683556,-102.418067,-92.513254,-10.391262
1772268124666,6.745491,-211.215803,-244.736154,-35.127385
1772268124670,-9.423158,-24.820047,-39.556398,-40.196771
1772268124627,-6.824649,59.872139,34.104615,-2.105519
1772268124631,5.058026,80.792795,47.565119,3.062565
1772268124635,12.308121,26.918629,0.409451,2.070042
1772268124639,-4.419184,-48.915021,-64.402698,-6.296053
1772268124643,-34.046700,-65.447028,-91.394596,-21.037345
1772268124647,-60.210063,-59.345030,-87.528114,-33.444794
1772268124651,-70.357895,-88.458288,-67.414647,-33.717181
1772268124655,-53.778493,-81.589338,5.439162,-17.643927
1772268124659,-13.314975,-30.706589,49.636097,-2.345541
1772268124662,15.683556,-102.418067,-92.513254,-10.391262
1772268124666,6.745491,-211.215803,-244.736154,-35.127385
1772268124670,-9.423158,-24.820047,-39.556398,-40.196771
1772268124627,-6.824649,59.872139,34.104615,-2.105519
1772268124631,5.058026,80.792795,47.565119,3.062565
1772268124635,12.308121,26.918629,0.409451,2.070042
1772268124639,-4.419184,-48.915021,-64.402698,-6.296053
1772268124643,-34.046700,-65.447028,-91.394596,-21.037345
1772268124647,-60.210063,-59.345030,-87.528114,-33.444794
1772268124651,-70.357895,-88.458288,-67.414647,-33.717181
1772268124655,-53.778493,-81.589338,5.439162,-17.643927
1772268124659,-13.314975,-30.706589,49.636097,-2.345541
1772268124662,15.683556,-102.418067,-92.513254,-10.391262
1772268124666,6.745491,-211.215803,-244.736154,-35.127385
1772268124670,-9.423158,-24.820047,-39.556398,-40.196771
1772268124627,-6.824649,59.872139,34.104615,-2.105519
1772268124631,5.058026,80.792795,47.565119,3.062565
1772268124635,12.308121,26.918629,0.409451,2.070042
1772268124639,-4.419184,-48.915021,-64.402698,-6.296053
1772268124643,-34.046700,-65.447028,-91.394596,-21.037345
1772268124647,-60.210063,-59.345030,-87.528114,-33.444794
1772268124651,-70.357895,-88.458288,-67.414647,-33.717181
1772268124655,-53.778493,-81.589338,5.439162,-17.643927
1772268124659,-13.314975,-30.706589,49.636097,-2.345541
1772268124662,15.683556,-102.418067,-92.513254,-10.391262
1772268124666,6.745491,-211.215803,-244.736154,-35.127385
1772268124670,-9.423158,-24.820047,-39.556398,-40.196771
1772268124674,-2.489389,140.551420,109.598391,-21.194314
1772268124678,-0.396139,179.845844,160.733104,-12.320762
1772268124682,-17.549426,122.110427,133.204199,-17.748232
1772268124686,-43.021657,86.194138,114.123794,-27.461130
1772268124690,-41.834062,166.773322,177.211022,-25.224424
1772268124694,-29.719562,204.098970,188.768279,-22.115933
1772268124698,-33.672644,43.588573,36.049680,-28.173978
1772268124702,-46.212894,-92.357417,-58.820445,-30.121595
1772268124705,-35.415687,53.797313,120.607872,-16.827532
1772268124709,-4.102402,251.309734,322.475132,0.654094
1772268124713,10.350195,109.413141,173.152082,-3.274517
1772268124717,8.736335,-190.401932,-156.243852,-33.892636
1772268124674,-2.489389,140.551420,109.598391,-21.194314
1772268124678,-0.396139,179.845844,160.733104,-12.320762
1772268124682,-17.549426,122.110427,133.204199,-17.748232
1772268124686,-43.021657,86.194138,114.123794,-27.461130
1772268124690,-41.834062,166.773322,177.211022,-25.224424
1772268124694,-29.719562,204.098970,188.768279,-22.115933
1772268124698,-33.672644,43.588573,36.049680,-28.173978
1772268124702,-46.212894,-92.357417,-58.820445,-30.121595
1772268124705,-35.415687,53.797313,120.607872,-16.827532
1772268124709,-4.102402,251.309734,322.475132,0.654094
1772268124713,10.350195,109.413141,173.152082,-3.274517
1772268124717,8.736335,-190.401932,-156.243852,-33.892636
1772268124721,3.496462,149.563795,184.476971,-25.677897
1772268124725,-4.049796,162.527672,170.105244,-19.051353
1772268124729,-7.737664,45.907976,61.256215,-15.197263
1772268124733,-3.402459,66.541636,68.028992,-15.431519
1772268124737,-3.096787,248.514901,231.199735,-12.074319
1772268124741,-16.172107,357.200335,362.924443,-4.163797
1772268124744,-33.277659,204.809033,261.048904,0.642558
1772268124748,-22.382722,-64.725810,-1.714743,-10.760599
1772268124752,4.734671,-154.346886,-138.487520,-32.181486
1772268124756,10.809921,-32.135934,-25.402985,-35.486006
1772268124760,-2.172659,191.939956,257.296018,-8.526624
1772268124764,-14.154629,346.421627,445.465261,23.955037
1772268124721,3.496462,149.563795,184.476971,-25.677897
1772268124725,-4.049796,162.527672,170.105244,-19.051353
1772268124729,-7.737664,45.907976,61.256215,-15.197263
1772268124733,-3.402459,66.541636,68.028992,-15.431519
1772268124737,-3.096787,248.514901,231.199735,-12.074319
1772268124741,-16.172107,357.200335,362.924443,-4.163797
1772268124744,-33.277659,204.809033,261.048904,0.642558
1772268124748,-22.382722,-64.725810,-1.714743,-10.760599
1772268124752,4.734671,-154.346886,-138.487520,-32.181486
1772268124756,10.809921,-32.135934,-25.402985,-35.486006
1772268124760,-2.172659,191.939956,257.296018,-8.526624
1772268124764,-14.154629,346.421627,445.465261,23.955037
1772268124768,-2.183615,140.008217,146.551440,1.937898
1772268124772,15.777663,126.023330,104.646030,-9.702381
1772268124776,17.923975,171.065036,172.754807,-6.196950
1772268124780,5.096853,345.655297,364.316523,7.657005
1772268124784,-8.410211,406.558651,416.742227,15.384813
1772268124787,-13.177944,237.551839,235.829261,7.498906
1772268124791,-11.411284,63.768828,62.996580,-6.730221
1772268124795,-1.515892,88.705159,101.437125,-7.661780
1772268124799,20.024305,183.803188,214.534823,2.107120
1772268124803,32.348569,95.258664,145.699083,7.701432
1772268124807,30.222018,-13.590662,28.982127,6.261567
1772268124811,23.556160,89.975848,90.556107,4.251308
1772268124815,14.007014,217.132483,196.262700,10.685997
1772268124819,8.401356,252.295814,236.501556,19.787516
1772268124823,2.791776,282.196899,265.856564,19.887679
1772268124827,-4.740668,301.148202,287.318381,16.420403
1772268124830,-8.054180,272.133571,270.059213,14.676602
1772268124834,-19.753585,182.192829,180.510934,7.337519
1772268124838,-32.607398,61.366370,41.420506,-9.384431
1772268124842,-16.738549,3.223689,-20.932339,-22.340538
1772268124846,12.648927,38.705050,60.636895,-15.126394
1772268124850,18.892945,145.292074,215.558292,8.399679
1772268124854,11.363444,250.097200,284.649832,22.912427
1772268124858,15.128817,203.861063,147.619419,5.788817
1772268124768,-2.183615,140.008217,146.551440,1.937898
1772268124772,15.777663,126.023330,104.646030,-9.702381
1772268124776,17.923975,171.065036,172.754807,-6.196950
1772268124780,5.096853,345.655297,364.316523,7.657005
1772268124784,-8.410211,406.558651,416.742227,15.384813
1772268124787,-13.177944,237.551839,235.829261,7.498906
1772268124791,-11.411284,63.768828,62.996580,-6.730221
1772268124795,-1.515892,88.705159,101.437125,-7.661780
1772268124799,20.024305,183.803188,214.534823,2.107120
1772268124803,32.348569,95.258664,145.699083,7.701432
1772268124807,30.222018,-13.590662,28.982127,6.261567
1772268124811,23.556160,89.975848,90.556107,4.251308
1772268124815,14.007014,217.132483,196.262700,10.685997
1772268124819,8.401356,252.295814,236.501556,19.787516
1772268124823,2.791776,282.196899,265.856564,19.887679
1772268124827,-4.740668,301.148202,287.318381,16.420403
1772268124830,-8.054180,272.133571,270.059213,14.676602
1772268124834,-19.753585,182.192829,180.510934,7.337519
1772268124838,-32.607398,61.366370,41.420506,-9.384431
1772268124842,-16.738549,3.223689,-20.932339,-22.340538
1772268124846,12.648927,38.705050,60.636895,-15.126394
1772268124850,18.892945,145.292074,215.558292,8.399679
1772268124854,11.363444,250.097200,284.649832,22.912427
1772268124858,15.128817,203.861063,147.619419,5.788817
1772268124955,0.725265,83.736150,70.055162,-0.686219
1772268124959,-5.538392,192.367685,166.027139,5.226251
1772268124963,-15.063880,287.156668,240.992828,3.607678
1772268124967,-18.719298,229.688605,190.378166,0.602914
1772268124971,-6.703268,110.939989,98.219610,-0.332129
1772268124975,8.639647,21.566870,18.267600,-3.417692
1772268124979,18.688259,-93.064577,-109.081196,-13.997567
1772268124983,20.477610,-224.974154,-240.029026,-24.339792
1772268124987,14.851828,-183.896875,-172.998911,-20.110228
1772268124991,9.709825,11.048251,44.955194,0.614011
1772268124994,9.686118,15.163302,37.918223,18.022538
1772268124998,13.724766,-181.490555,-226.706242,5.900753
1772268124955,0.725265,83.736150,70.055162,-0.686219
1772268124959,-5.538392,192.367685,166.027139,5.226251
1772268124963,-15.063880,287.156668,240.992828,3.607678
1772268124967,-18.719298,229.688605,190.378166,0.602914
1772268124971,-6.703268,110.939989,98.219610,-0.332129
1772268124975,8.639647,21.566870,18.267600,-3.417692
1772268124979,18.688259,-93.064577,-109.081196,-13.997567
1772268124983,20.477610,-224.974154,-240.029026,-24.339792
1772268124987,14.851828,-183.896875,-172.998911,-20.110228
1772268124991,9.709825,11.048251,44.955194,0.614011
1772268124994,9.686118,15.163302,37.918223,18.022538
1772268124998,13.724766,-181.490555,-226.706242,5.900753
1772268124955,0.725265,83.736150,70.055162,-0.686219
1772268124959,-5.538392,192.367685,166.027139,5.226251
1772268124963,-15.063880,287.156668,240.992828,3.607678
1772268124967,-18.719298,229.688605,190.378166,0.602914
1772268124971,-6.703268,110.939989,98.219610,-0.332129
1772268124975,8.639647,21.566870,18.267600,-3.417692
1772268124979,18.688259,-93.064577,-109.081196,-13.997567
1772268124983,20.477610,-224.974154,-240.029026,-24.339792
1772268124987,14.851828,-183.896875,-172.998911,-20.110228
1772268124991,9.709825,11.048251,44.955194,0.614011
1772268124994,9.686118,15.163302,37.918223,18.022538
1772268124998,13.724766,-181.490555,-226.706242,5.900753
1772268124955,0.725265,83.736150,70.055162,-0.686219
1772268124959,-5.538392,192.367685,166.027139,5.226251
1772268124963,-15.063880,287.156668,240.992828,3.607678
1772268124967,-18.719298,229.688605,190.378166,0.602914
1772268124971,-6.703268,110.939989,98.219610,-0.332129
1772268124975,8.639647,21.566870,18.267600,-3.417692
1772268124979,18.688259,-93.064577,-109.081196,-13.997567
1772268124983,20.477610,-224.974154,-240.029026,-24.339792
1772268124987,14.851828,-183.896875,-172.998911,-20.110228
1772268124991,9.709825,11.048251,44.955194,0.614011
1772268124994,9.686118,15.163302,37.918223,18.022538
1772268124998,13.724766,-181.490555,-226.706242,5.900753
1772268125002,3.019751,-70.672946,-89.596995,7.888475
1772268125006,-0.755508,-39.048384,-74.244778,3.750928
1772268125010,7.965690,-48.435475,-96.520044,0.095292
1772268125014,9.449661,-141.233244,-189.678577,-5.828440
1772268125018,3.405855,-171.067204,-213.728173,-11.503317
1772268125022,10.799190,-95.899531,-120.908422,-4.681686
1772268125026,20.904954,-101.992112,-93.027695,10.803061
1772268125030,18.952997,-233.362747,-221.636303,11.269775
1772268125034,10.781183,-296.905207,-335.846263,-5.139000
1772268125037,5.085163,-188.235966,-251.874039,-13.225456
1772268125041,0.761101,48.492855,38.781018,5.897473
1772268125045,-2.714092,276.353790,317.228050,36.755980
1772268125002,3.019751,-70.672946,-89.596995,7.888475
1772268125006,-0.755508,-39.048384,-74.244778,3.750928
1772268125010,7.965690,-48.435475,-96.520044,0.095292
1772268125014,9.449661,-141.233244,-189.678577,-5.828440
1772268125018,3.405855,-171.067204,-213.728173,-11.503317
1772268125022,10.799190,-95.899531,-120.908422,-4.681686
1772268125026,20.904954,-101.992112,-93.027695,10.803061
1772268125030,18.952997,-233.362747,-221.636303,11.269775
1772268125034,10.781183,-296.905207,-335.846263,-5.139000
1772268125037,5.085163,-188.235966,-251.874039,-13.225456
1772268125041,0.761101,48.492855,38.781018,5.897473
1772268125045,-2.714092,276.353790,317.228050,36.755980
1772268125002,3.019751,-70.672946,-89.596995,7.888475
1772268125006,-0.755508,-39.048384,-74.244778,3.750928
1772268125010,7.965690,-48.435475,-96.520044,0.095292
1772268125014,9.449661,-141.233244,-189.678577,-5.828440
1772268125018,3.405855,-171.067204,-213.728173,-11.503317
1772268125022,10.799190,-95.899531,-120.908422,-4.681686
1772268125026,20.904954,-101.992112,-93.027695,10.803061
1772268125030,18.952997,-233.362747,-221.636303,11.269775
1772268125034,10.781183,-296.905207,-335.846263,-5.139000
1772268125037,5.085163,-188.235966,-251.874039,-13.225456
1772268125041,0.761101,48.492855,38.781018,5.897473
1772268125045,-2.714092,276.353790,317.228050,36.755980
1772268125096,0.383210,140.145241,134.984799,4.097218
1772268125100,-0.921110,240.065324,230.424068,6.942330
1772268125104,-12.731063,173.422946,182.027388,3.794175
1772268125108,-29.633666,196.829804,203.792094,-1.001900
1772268125112,-31.774434,353.713038,340.953988,-0.807357
1772268125116,-18.143599,345.077159,330.261980,3.652725
1772268125119,0.477850,64.831141,71.145336,2.019586
1772268125123,9.393325,-159.251942,-131.856943,-3.730879
1772268125127,11.976859,-32.086133,11.056890,2.155712
1772268125131,16.090090,238.498240,304.214557,22.036730
1772268125135,15.657995,262.432158,328.893787,34.249268
1772268125139,13.568905,16.813837,27.491659,13.702032
1772268125057,-7.555736,-11.084411,-10.002997,7.603484
1772268125061,-9.317244,-32.417895,-16.818291,4.282121
1772268125065,-9.471380,65.876318,55.115142,3.176857
1772268125069,-11.944683,113.663407,76.437660,1.434106
1772268125073,-11.430800,69.694874,60.811769,4.799736
1772268125076,-7.919133,82.418253,136.918948,19.700456
1772268125080,-2.182167,200.877782,268.251143,31.637327
1772268125084,-0.504571,162.010549,176.562324,19.432107
1772268125088,-1.410221,-133.143278,-159.036200,-12.910181
1772268125092,-1.679709,-209.376722,-215.357902,-25.354988
1772268125049,1.856560,116.103694,83.087405,12.433973
1772268125053,-0.484014,93.227486,66.691510,11.179083
1772268125057,-7.555736,-11.084411,-10.002997,7.603484
1772268125061,-9.317244,-32.417895,-16.818291,4.282121
1772268125065,-9.471380,65.876318,55.115142,3.176857
1772268125069,-11.944683,113.663407,76.437660,1.434106
1772268125073,-11.430800,69.694874,60.811769,4.799736
1772268125076,-7.919133,82.418253,136.918948,19.700456
1772268125080,-2.182167,200.877782,268.251143,31.637327
1772268125084,-0.504571,162.010549,176.562324,19.432107
1772268125088,-1.410221,-133.143278,-159.036200,-12.910181
1772268125092,-1.679709,-209.376722,-215.357902,-25.354988
1772268125096,0.383210,140.145241,134.984799,4.097218
1772268125100,-0.921110,240.065324,230.424068,6.942330
1772268125104,-12.731063,173.422946,182.027388,3.794175
1772268125108,-29.633666,196.829804,203.792094,-1.001900
1772268125112,-31.774434,353.713038,340.953988,-0.807357
1772268125116,-18.143599,345.077159,330.261980,3.652725
1772268125119,0.477850,64.831141,71.145336,2.019586
1772268125123,9.393325,-159.251942,-131.856943,-3.730879
1772268125127,11.976859,-32.086133,11.056890,2.155712
1772268125131,16.090090,238.498240,304.214557,22.036730
1772268125135,15.657995,262.432158,328.893787,34.249268
1772268125139,13.568905,16.813837,27.491659,13.702032
1772268125096,0.383210,140.145241,134.984799,4.097218
1772268125100,-0.921110,240.065324,230.424068,6.942330
1772268125104,-12.731063,173.422946,182.027388,3.794175
1772268125108,-29.633666,196.829804,203.792094,-1.001900
1772268125112,-31.774434,353.713038,340.953988,-0.807357
1772268125116,-18.143599,345.077159,330.261980,3.652725
1772268125119,0.477850,64.831141,71.145336,2.019586
1772268125123,9.393325,-159.251942,-131.856943,-3.730879
1772268125127,11.976859,-32.086133,11.056890,2.155712
1772268125131,16.090090,238.498240,304.214557,22.036730
1772268125135,15.657995,262.432158,328.893787,34.249268
1772268125139,13.568905,16.813837,27.491659,13.702032
1772268125221,29.159526,-430.024941,-464.194341,-5.339773
1772268125225,37.674087,-492.987368,-521.281390,-16.313651
1772268125229,34.135359,-280.608804,-256.936840,-0.822211
1772268125143,0.224060,232.597805,271.156675,11.124871
1772268125147,-1.739500,232.281939,246.080431,8.203374
1772268125151,-0.669609,107.164491,93.365290,-7.133446
1772268125155,-4.234860,95.662019,71.967590,-13.892060
1772268125159,-14.163482,180.148651,178.449813,-5.232941
1772268125162,-25.887637,172.816733,201.944540,3.039696
1772268125166,-30.249213,-16.148791,24.373535,-3.093393
1772268125170,-13.398855,-226.504726,-194.719932,-16.205983
1772268125174,8.307284,-312.211769,-277.885421,-19.048478
1772268125178,15.899839,-306.820677,-248.987564,-11.079905
1772268125182,20.124023,-194.733217,-139.360810,-0.983715
1772268125186,26.963082,-5.412755,9.129030,5.461040
1772268125190,31.497026,62.998795,51.823971,6.046782
1772268125194,27.757768,0.800214,-8.339663,6.174028
1772268125198,19.838743,-9.717912,-30.855577,5.630958
1772268125201,16.230837,14.609597,-32.199770,-0.153672
1772268125205,11.931527,-38.906413,-80.966091,-4.979749
1772268125209,6.807489,-110.793380,-114.602522,-1.355857
1772268125213,6.512734,-162.823927,-138.919105,8.189753
1772268125217,14.512826,-266.695416,-261.806297,9.365650
1772268125221,29.159526,-430.024941,-464.194341,-5.339773
1772268125225,37.674087,-492.987368,-521.281390,-16.313651
1772268125229,34.135359,-280.608804,-256.936840,-0.822211
1772268125241,13.686151,-97.579555,-135.686781,0.163955
1772268125244,10.727878,4.444986,-52.809820,-0.022025
1772268125248,8.928249,10.860581,-46.788610,0.932376
1772268125252,5.580119,-46.420514,-75.483863,3.871932
1772268125256,-0.504967,-105.675988,-109.988426,7.134422
1772268125260,-1.115173,-158.307921,-174.198534,3.023794
1772268125264,1.704700,-246.029543,-273.202796,-3.196098
1772268125268,3.190262,-312.063613,-294.485516,1.730169
1772268125272,4.635543,-174.110336,-97.221849,20.369383
1772268125276,5.072644,55.693499,122.142641,35.757714
1772268125280,7.295040,63.985408,45.266995,21.993019
1772268125233,32.644301,-274.480552,-296.438997,3.808906
1772268125237,21.557797,-209.751961,-239.271541,1.876052
1772268125241,13.686151,-97.579555,-135.686781,0.163955
1772268125244,10.727878,4.444986,-52.809820,-0.022025
1772268125248,8.928249,10.860581,-46.788610,0.932376
1772268125252,5.580119,-46.420514,-75.483863,3.871932
1772268125256,-0.504967,-105.675988,-109.988426,7.134422
1772268125260,-1.115173,-158.307921,-174.198534,3.023794
1772268125264,1.704700,-246.029543,-273.202796,-3.196098
1772268125268,3.190262,-312.063613,-294.485516,1.730169
1772268125272,4.635543,-174.110336,-97.221849,20.369383
1772268125276,5.072644,55.693499,122.142641,35.757714
1772268125280,7.295040,63.985408,45.266995,21.993019
1772268125283,3.416068,85.576847,86.375123,13.052743
1772268125287,-0.858892,100.550987,98.167659,8.540799
1772268125291,-2.567053,191.731922,170.811834,7.282915
1772268125295,-3.234399,171.475263,147.470606,7.770521
1772268125299,-2.046814,77.491696,76.500263,8.840815
1772268125303,-1.115855,113.833405,142.812744,15.973059
1772268125307,-3.349614,204.119911,253.978596,26.516615
1772268125311,-2.750826,113.374802,161.623760,25.367611
1772268125315,0.408614,-135.119965,-110.689587,6.758614
1772268125319,3.135242,-225.254099,-217.562806,-12.335077
1772268125323,1.061026,3.972569,39.873328,-4.752421
1772268125326,-6.964488,363.287495,438.428588,24.346122
1772268125283,3.416068,85.576847,86.375123,13.052743
1772268125287,-0.858892,100.550987,98.167659,8.540799
1772268125291,-2.567053,191.731922,170.811834,7.282915
1772268125295,-3.234399,171.475263,147.470606,7.770521
1772268125299,-2.046814,77.491696,76.500263,8.840815
1772268125303,-1.115855,113.833405,142.812744,15.973059
1772268125307,-3.349614,204.119911,253.978596,26.516615
1772268125311,-2.750826,113.374802,161.623760,25.367611
1772268125315,0.408614,-135.119965,-110.689587,6.758614
1772268125319,3.135242,-225.254099,-217.562806,-12.335077
1772268125323,1.061026,3.972569,39.873328,-4.752421
1772268125326,-6.964488,363.287495,438.428588,24.346122
1772268125330,-4.191955,178.074333,191.638023,5.508615
1772268125334,-2.980218,265.635597,266.115135,9.683940
1772268125338,-0.210066,336.776198,329.910213,16.471152
1772268125342,-0.009843,257.041094,271.616327,19.303749
1772268125346,-1.540739,56.965005,91.235007,17.921174
1772268125350,2.393076,-75.403381,-56.434440,11.425101
1772268125354,5.261270,-86.396111,-73.629543,7.545040
1772268125358,5.485469,-24.540349,31.051158,17.178021
1772268125362,5.648697,85.043228,168.458515,28.494234
1772268125366,4.601593,77.724055,114.695635,19.603353
1772268125369,9.470200,-115.499544,-154.690917,-10.815893
1772268125373,14.179816,-148.733775,-213.816176,-30.370778
1772268125330,-4.191955,178.074333,191.638023,5.508615
1772268125334,-2.980218,265.635597,266.115135,9.683940
1772268125338,-0.210066,336.776198,329.910213,16.471152
1772268125342,-0.009843,257.041094,271.616327,19.303749
1772268125346,-1.540739,56.965005,91.235007,17.921174
1772268125350,2.393076,-75.403381,-56.434440,11.425101
1772268125354,5.261270,-86.396111,-73.629543,7.545040
1772268125358,5.485469,-24.540349,31.051158,17.178021
1772268125362,5.648697,85.043228,168.458515,28.494234
1772268125366,4.601593,77.724055,114.695635,19.603353
1772268125369,9.470200,-115.499544,-154.690917,-10.815893
1772268125373,14.179816,-148.733775,-213.816176,-30.370778
1772268125424,-4.835834,60.310925,13.476970,-13.134107
1772268125428,-2.038096,19.366865,-35.532751,-18.210097
1772268125432,-0.738678,-85.377526,-129.141241,-20.964210
1772268125436,-3.540986,-151.429250,-191.582714,-22.802991
1772268125440,-2.547185,-70.339032,-126.049978,-25.191286
1772268125444,-1.817599,53.158582,2.707689,-18.471161
1772268125448,-6.695990,-0.652386,-2.352094,-3.954141
1772268125451,-4.402071,-213.923989,-184.372634,2.041211
1772268125455,4.888941,-384.538708,-390.338161,-7.543209
1772268125459,7.411085,-393.630916,-442.692182,-22.820713
1772268125463,-4.026220,-246.047294,-263.843123,-18.956857
1772268125467,-18.430271,-9.531182,40.888661,9.466894
1772268125424,-4.835834,60.310925,13.476970,-13.134107
1772268125428,-2.038096,19.366865,-35.532751,-18.210097
1772268125432,-0.738678,-85.377526,-129.141241,-20.964210
1772268125436,-3.540986,-151.429250,-191.582714,-22.802991
1772268125440,-2.547185,-70.339032,-126.049978,-25.191286
1772268125444,-1.817599,53.158582,2.707689,-18.471161
1772268125448,-6.695990,-0.652386,-2.352094,-3.954141
1772268125451,-4.402071,-213.923989,-184.372634,2.041211
1772268125455,4.888941,-384.538708,-390.338161,-7.543209
1772268125459,7.411085,-393.630916,-442.692182,-22.820713
1772268125463,-4.026220,-246.047294,-263.843123,-18.956857
1772268125467,-18.430271,-9.531182,40.888661,9.466894
1772268125424,-4.835834,60.310925,13.476970,-13.134107
1772268125428,-2.038096,19.366865,-35.532751,-18.210097
1772268125432,-0.738678,-85.377526,-129.141241,-20.964210
1772268125436,-3.540986,-151.429250,-191.582714,-22.802991
1772268125440,-2.547185,-70.339032,-126.049978,-25.191286
1772268125444,-1.817599,53.158582,2.707689,-18.471161
1772268125448,-6.695990,-0.652386,-2.352094,-3.954141
1772268125451,-4.402071,-213.923989,-184.372634,2.041211
1772268125455,4.888941,-384.538708,-390.338161,-7.543209
1772268125459,7.411085,-393.630916,-442.692182,-22.820713
1772268125463,-4.026220,-246.047294,-263.843123,-18.956857
1772268125467,-18.430271,-9.531182,40.888661,9.466894
1772268125424,-4.835834,60.310925,13.476970,-13.134107
1772268125428,-2.038096,19.366865,-35.532751,-18.210097
1772268125432,-0.738678,-85.377526,-129.141241,-20.964210
1772268125436,-3.540986,-151.429250,-191.582714,-22.802991
1772268125440,-2.547185,-70.339032,-126.049978,-25.191286
1772268125444,-1.817599,53.158582,2.707689,-18.471161
1772268125448,-6.695990,-0.652386,-2.352094,-3.954141
1772268125451,-4.402071,-213.923989,-184.372634,2.041211
1772268125455,4.888941,-384.538708,-390.338161,-7.543209
1772268125459,7.411085,-393.630916,-442.692182,-22.820713
1772268125463,-4.026220,-246.047294,-263.843123,-18.956857
1772268125467,-18.430271,-9.531182,40.888661,9.466894
1772268125424,-4.835834,60.310925,13.476970,-13.134107
1772268125428,-2.038096,19.366865,-35.532751,-18.210097
1772268125432,-0.738678,-85.377526,-129.141241,-20.964210
1772268125436,-3.540986,-151.429250,-191.582714,-22.802991
1772268125440,-2.547185,-70.339032,-126.049978,-25.191286
1772268125444,-1.817599,53.158582,2.707689,-18.471161
1772268125448,-6.695990,-0.652386,-2.352094,-3.954141
1772268125451,-4.402071,-213.923989,-184.372634,2.041211
1772268125455,4.888941,-384.538708,-390.338161,-7.543209
1772268125459,7.411085,-393.630916,-442.692182,-22.820713
1772268125463,-4.026220,-246.047294,-263.843123,-18.956857
1772268125467,-18.430271,-9.531182,40.888661,9.466894
1772268125424,-4.835834,60.310925,13.476970,-13.134107
1772268125428,-2.038096,19.366865,-35.532751,-18.210097
1772268125432,-0.738678,-85.377526,-129.141241,-20.964210
1772268125436,-3.540986,-151.429250,-191.582714,-22.802991
1772268125440,-2.547185,-70.339032,-126.049978,-25.191286
1772268125444,-1.817599,53.158582,2.707689,-18.471161
1772268125448,-6.695990,-0.652386,-2.352094,-3.954141
1772268125451,-4.402071,-213.923989,-184.372634,2.041211
1772268125455,4.888941,-384.538708,-390.338161,-7.543209
1772268125459,7.411085,-393.630916,-442.692182,-22.820713
1772268125463,-4.026220,-246.047294,-263.843123,-18.956857
1772268125467,-18.430271,-9.531182,40.888661,9.466894
1772268125471,-19.053271,-69.012526,-94.866553,-3.704545
1772268125475,-13.992336,20.927689,-9.246671,1.674102
1772268125479,-0.016909,21.405375,4.447178,8.743974
1772268125483,7.135400,66.363171,46.279589,12.439410
1772268125487,3.930725,96.162525,54.865793,7.360119
1772268125490,6.067423,-9.474049,-61.530812,-2.992913
1772268125494,14.498530,-176.245695,-198.891746,-2.415179
1772268125498,23.247019,-149.080116,-119.904818,15.865344
1772268125502,21.865969,59.586249,108.747592,33.011768
1772268125506,13.061586,61.350048,81.191088,27.174190
1772268125510,11.603866,-209.643011,-244.942765,-1.778170
1772268125514,3.590908,-331.448475,-389.133563,-28.629084
1772268125471,-19.053271,-69.012526,-94.866553,-3.704545
1772268125475,-13.992336,20.927689,-9.246671,1.674102
1772268125479,-0.016909,21.405375,4.447178,8.743974
1772268125483,7.135400,66.363171,46.279589,12.439410
1772268125487,3.930725,96.162525,54.865793,7.360119
1772268125490,6.067423,-9.474049,-61.530812,-2.992913
1772268125494,14.498530,-176.245695,-198.891746,-2.415179
1772268125498,23.247019,-149.080116,-119.904818,15.865344
1772268125502,21.865969,59.586249,108.747592,33.011768
1772268125506,13.061586,61.350048,81.191088,27.174190
1772268125510,11.603866,-209.643011,-244.942765,-1.778170
1772268125514,3.590908,-331.448475,-389.133563,-28.629084
1772268125518,-16.641534,30.094632,3.368874,-7.796316
1772268125522,-27.416330,90.782570,58.483049,-12.645351
1772268125526,-26.887651,67.056319,46.213239,-7.846459
1772268125530,-21.923185,93.760379,76.191134,-1.209490
1772268125533,-21.826321,205.780533,186.863948,9.117648
1772268125537,-25.708066,237.140046,226.661160,20.344822
1772268125541,-21.783465,48.948615,46.728057,14.992847
1772268125545,-16.308441,-180.288982,-187.189947,-7.898529
1772268125549,-11.919836,-166.225698,-168.139047,-23.461149
1772268125553,-8.028840,49.142231,87.969564,-10.261128
1772268125557,-10.740377,247.286762,305.208461,13.541801
1772268125561,-15.942447,193.256931,191.814351,4.874705
1772268125518,-16.641534,30.094632,3.368874,-7.796316
1772268125522,-27.416330,90.782570,58.483049,-12.645351
1772268125526,-26.887651,67.056319,46.213239,-7.846459
1772268125530,-21.923185,93.760379,76.191134,-1.209490
1772268125533,-21.826321,205.780533,186.863948,9.117648
1772268125537,-25.708066,237.140046,226.661160,20.344822
1772268125541,-21.783465,48.948615,46.728057,14.992847
1772268125545,-16.308441,-180.288982,-187.189947,-7.898529
1772268125549,-11.919836,-166.225698,-168.139047,-23.461149
1772268125553,-8.028840,49.142231,87.969564,-10.261128
1772268125557,-10.740377,247.286762,305.208461,13.541801
1772268125561,-15.942447,193.256931,191.814351,4.874705
1772268125518,-16.641534,30.094632,3.368874,-7.796316
1772268125522,-27.416330,90.782570,58.483049,-12.645351
1772268125526,-26.887651,67.056319,46.213239,-7.846459
1772268125530,-21.923185,93.760379,76.191134,-1.209490
1772268125533,-21.826321,205.780533,186.863948,9.117648
1772268125537,-25.708066,237.140046,226.661160,20.344822
1772268125541,-21.783465,48.948615,46.728057,14.992847
1772268125545,-16.308441,-180.288982,-187.189947,-7.898529
1772268125549,-11.919836,-166.225698,-168.139047,-23.461149
1772268125553,-8.028840,49.142231,87.969564,-10.261128
1772268125557,-10.740377,247.286762,305.208461,13.541801
1772268125561,-15.942447,193.256931,191.814351,4.874705
1772268125518,-16.641534,30.094632,3.368874,-7.796316
1772268125522,-27.416330,90.782570,58.483049,-12.645351
1772268125526,-26.887651,67.056319,46.213239,-7.846459
1772268125530,-21.923185,93.760379,76.191134,-1.209490
1772268125533,-21.826321,205.780533,186.863948,9.117648
1772268125537,-25.708066,237.140046,226.661160,20.344822
1772268125541,-21.783465,48.948615,46.728057,14.992847
1772268125545,-16.308441,-180.288982,-187.189947,-7.898529
1772268125549,-11.919836,-166.225698,-168.139047,-23.461149
1772268125553,-8.028840,49.142231,87.969564,-10.261128
1772268125557,-10.740377,247.286762,305.208461,13.541801
1772268125561,-15.942447,193.256931,191.814351,4.874705
1772268125705,-8.622969,48.286577,69.725179,-5.318167
1772268125709,-5.176220,97.477928,96.728676,-9.042373
1772268125713,0.769668,191.088883,171.081766,-6.179046
1772268125717,2.281906,146.276733,129.811206,-3.435730
1772268125721,0.409089,52.646864,45.611007,-10.499135
1772268125725,-5.140664,49.057304,55.612238,-14.523044
1772268125729,-9.822114,55.347271,95.368952,-4.081579
1772268125733,-7.932715,-75.655522,-4.410012,5.313370
1772268125737,-3.117721,-263.475606,-216.654535,-2.625356
1772268125740,2.903192,-328.800084,-341.925741,-21.369729
1772268125744,6.576881,-206.556277,-222.117898,-26.565852
1772268125748,6.460710,114.155461,149.677878,-4.171019
1772268125705,-8.622969,48.286577,69.725179,-5.318167
1772268125709,-5.176220,97.477928,96.728676,-9.042373
1772268125713,0.769668,191.088883,171.081766,-6.179046
1772268125717,2.281906,146.276733,129.811206,-3.435730
1772268125721,0.409089,52.646864,45.611007,-10.499135
1772268125725,-5.140664,49.057304,55.612238,-14.523044
1772268125729,-9.822114,55.347271,95.368952,-4.081579
1772268125733,-7.932715,-75.655522,-4.410012,5.313370
1772268125737,-3.117721,-263.475606,-216.654535,-2.625356
1772268125740,2.903192,-328.800084,-341.925741,-21.369729
1772268125744,6.576881,-206.556277,-222.117898,-26.565852
1772268125748,6.460710,114.155461,149.677878,-4.171019
1772268125752,8.234713,-34.135442,-48.814696,-13.242705
1772268125756,1.124778,36.564176,9.566009,-9.032894
1772268125760,-1.803499,91.744791,59.893408,-4.207070
1772268125764,-3.886714,81.142677,59.596331,-0.260602
1772268125768,-3.719113,-2.347774,-21.535189,0.154705
1772268125772,1.214786,-146.952746,-178.300043,-9.240838
1772268125776,2.141702,-301.630875,-318.157003,-19.997942
1772268125780,-1.353741,-277.282749,-255.881757,-17.517765
1772268125783,-8.649023,-30.125282,0.485074,-3.009020
1772268125787,-13.128328,57.899851,61.438846,2.221624
1772268125791,-8.123171,-207.673393,-253.956500,-18.397457
1772268125795,-7.209152,-383.058343,-469.429130,-44.288257
1772268125752,8.234713,-34.135442,-48.814696,-13.242705
1772268125756,1.124778,36.564176,9.566009,-9.032894
1772268125760,-1.803499,91.744791,59.893408,-4.207070
1772268125764,-3.886714,81.142677,59.596331,-0.260602
1772268125768,-3.719113,-2.347774,-21.535189,0.154705
1772268125772,1.214786,-146.952746,-178.300043,-9.240838
1772268125776,2.141702,-301.630875,-318.157003,-19.997942
1772268125780,-1.353741,-277.282749,-255.881757,-17.517765
1772268125783,-8.649023,-30.125282,0.485074,-3.009020
1772268125787,-13.128328,57.899851,61.438846,2.221624
1772268125791,-8.123171,-207.673393,-253.956500,-18.397457
1772268125795,-7.209152,-383.058343,-469.429130,-44.288257
1772268125799,-13.959400,-61.607020,-100.433940,-18.826950
1772268125803,-9.890299,-92.697056,-120.145075,-21.000374
1772268125807,-4.055871,-146.640885,-160.185466,-21.270650
1772268125811,4.490088,-137.957796,-155.136249,-17.291229
1772268125815,2.893808,5.018532,-24.135706,-7.777604
1772268125819,-10.621744,111.320412,84.363171,-3.378589
1772268125822,-19.543438,-50.377184,-61.873708,-10.372047
1772268125826,-22.902619,-358.312023,-366.960728,-28.544061
1772268125830,-27.055368,-400.573402,-426.333049,-45.726457
1772268125834,-31.264652,-113.952331,-126.112271,-35.450768
1772268125838,-29.058323,110.558947,148.126659,-4.928568
1772268125842,-18.009780,15.559723,47.518379,2.755938
1772268125799,-13.959400,-61.607020,-100.433940,-18.826950
1772268125803,-9.890299,-92.697056,-120.145075,-21.000374
1772268125807,-4.055871,-146.640885,-160.185466,-21.270650
1772268125811,4.490088,-137.957796,-155.136249,-17.291229
1772268125815,2.893808,5.018532,-24.135706,-7.777604
1772268125819,-10.621744,111.320412,84.363171,-3.378589
1772268125822,-19.543438,-50.377184,-61.873708,-10.372047
1772268125826,-22.902619,-358.312023,-366.960728,-28.544061
1772268125830,-27.055368,-400.573402,-426.333049,-45.726457
1772268125834,-31.264652,-113.952331,-126.112271,-35.450768
1772268125838,-29.058323,110.558947,148.126659,-4.928568
1772268125842,-18.009780,15.559723,47.518379,2.755938
1772268125846,-7.975457,-19.198949,-32.772560,-15.985929
1772268125850,-1.883586,-48.344173,-70.802781,-16.153060
1772268125854,1.420162,-154.497074,-161.874687,-13.208233
1772268125858,2.748872,-170.745141,-177.343745,-7.762856
1772268125862,6.865064,-67.623957,-96.517995,-3.983159
1772268125865,8.158201,8.560710,-16.068170,1.794359
1772268125869,6.965203,-39.137766,-12.097760,11.363406
1772268125873,4.364396,-125.230434,-63.182680,17.113671
1772268125877,2.023968,-184.380679,-158.158729,7.182312
1772268125881,8.186429,-265.080707,-291.677333,-14.148267
1772268125885,16.790370,-267.402431,-279.867681,-19.446095
1772268125889,18.362947,-6.808603,45.682109,6.454483
1772268125846,-7.975457,-19.198949,-32.772560,-15.985929
1772268125850,-1.883586,-48.344173,-70.802781,-16.153060
1772268125854,1.420162,-154.497074,-161.874687,-13.208233
1772268125858,2.748872,-170.745141,-177.343745,-7.762856
1772268125862,6.865064,-67.623957,-96.517995,-3.983159
1772268125865,8.158201,8.560710,-16.068170,1.794359
1772268125869,6.965203,-39.137766,-12.097760,11.363406
1772268125873,4.364396,-125.230434,-63.182680,17.113671
1772268125877,2.023968,-184.380679,-158.158729,7.182312
1772268125881,8.186429,-265.080707,-291.677333,-14.148267
1772268125885,16.790370,-267.402431,-279.867681,-19.446095
1772268125889,18.362947,-6.808603,45.682109,6.454483
1772268125846,-7.975457,-19.198949,-32.772560,-15.985929
1772268125850,-1.883586,-48.344173,-70.802781,-16.153060
1772268125854,1.420162,-154.497074,-161.874687,-13.208233
1772268125858,2.748872,-170.745141,-177.343745,-7.762856
1772268125862,6.865064,-67.623957,-96.517995,-3.983159
1772268125865,8.158201,8.560710,-16.068170,1.794359
1772268125869,6.965203,-39.137766,-12.097760,11.363406
1772268125873,4.364396,-125.230434,-63.182680,17.113671
1772268125877,2.023968,-184.380679,-158.158729,7.182312
1772268125881,8.186429,-265.080707,-291.677333,-14.148267
1772268125885,16.790370,-267.402431,-279.867681,-19.446095
1772268125889,18.362947,-6.808603,45.682109,6.454483
1772268125846,-7.975457,-19.198949,-32.772560,-15.985929
1772268125850,-1.883586,-48.344173,-70.802781,-16.153060
1772268125854,1.420162,-154.497074,-161.874687,-13.208233
1772268125858,2.748872,-170.745141,-177.343745,-7.762856
1772268125862,6.865064,-67.623957,-96.517995,-3.983159
1772268125865,8.158201,8.560710,-16.068170,1.794359
1772268125869,6.965203,-39.137766,-12.097760,11.363406
1772268125873,4.364396,-125.230434,-63.182680,17.113671
1772268125877,2.023968,-184.380679,-158.158729,7.182312
1772268125881,8.186429,-265.080707,-291.677333,-14.148267
1772268125885,16.790370,-267.402431,-279.867681,-19.446095
1772268125889,18.362947,-6.808603,45.682109,6.454483
1772268125893,20.193551,44.217968,37.306426,11.206681
1772268125897,15.700753,134.973606,129.580061,20.436980
1772268125901,12.977736,114.911471,127.285345,21.111280
1772268125905,8.454499,139.987003,157.201885,17.577331
1772268125908,1.686884,170.168079,174.041824,11.932423
1772268125912,-1.086402,57.150227,47.663811,0.333149
1772268125916,-1.790843,-154.177923,-147.242340,-9.600944
1772268125920,0.892450,-171.199353,-120.005375,-3.174703
1772268125924,2.763636,23.864953,117.624471,19.176948
1772268125928,2.866510,79.299673,175.511895,33.084978
1772268125932,7.902294,-63.649060,-36.504758,20.078994
1772268125936,12.017997,-151.240261,-195.840199,-3.061128
1772268125893,20.193551,44.217968,37.306426,11.206681
1772268125897,15.700753,134.973606,129.580061,20.436980
1772268125901,12.977736,114.911471,127.285345,21.111280
1772268125905,8.454499,139.987003,157.201885,17.577331
1772268125908,1.686884,170.168079,174.041824,11.932423
1772268125912,-1.086402,57.150227,47.663811,0.333149
1772268125916,-1.790843,-154.177923,-147.242340,-9.600944
1772268125920,0.892450,-171.199353,-120.005375,-3.174703
1772268125924,2.763636,23.864953,117.624471,19.176948
1772268125928,2.866510,79.299673,175.511895,33.084978
1772268125932,7.902294,-63.649060,-36.504758,20.078994
1772268125936,12.017997,-151.240261,-195.840199,-3.061128
1772268125893,20.193551,44.217968,37.306426,11.206681
1772268125897,15.700753,134.973606,129.580061,20.436980
1772268125901,12.977736,114.911471,127.285345,21.111280
1772268125905,8.454499,139.987003,157.201885,17.577331
1772268125908,1.686884,170.168079,174.041824,11.932423
1772268125912,-1.086402,57.150227,47.663811,0.333149
1772268125916,-1.790843,-154.177923,-147.242340,-9.600944
1772268125920,0.892450,-171.199353,-120.005375,-3.174703
1772268125924,2.763636,23.864953,117.624471,19.176948
1772268125928,2.866510,79.299673,175.511895,33.084978
1772268125932,7.902294,-63.649060,-36.504758,20.078994
1772268125936,12.017997,-151.240261,-195.840199,-3.061128
1772268125893,20.193551,44.217968,37.306426,11.206681
1772268125897,15.700753,134.973606,129.580061,20.436980
1772268125901,12.977736,114.911471,127.285345,21.111280
1772268125905,8.454499,139.987003,157.201885,17.577331
1772268125908,1.686884,170.168079,174.041824,11.932423
1772268125912,-1.086402,57.150227,47.663811,0.333149
1772268125916,-1.790843,-154.177923,-147.242340,-9.600944
1772268125920,0.892450,-171.199353,-120.005375,-3.174703
1772268125924,2.763636,23.864953,117.624471,19.176948
1772268125928,2.866510,79.299673,175.511895,33.084978
1772268125932,7.902294,-63.649060,-36.504758,20.078994
1772268125936,12.017997,-151.240261,-195.840199,-3.061128
1772268125940,4.705882,194.144718,212.337123,18.446313
1772268125944,-5.197680,275.857077,314.814390,26.442627
1772268125947,-15.975306,238.213153,258.920146,15.868128
1772268125951,-16.989048,140.743937,120.010788,-10.169748
1772268125955,-16.499135,47.565001,20.901891,-26.906555
1772268125959,-19.017004,35.348531,46.488653,-21.505482
1772268125963,-18.166218,53.195593,99.654838,-4.210252
1772268125967,-12.661465,-8.925521,39.022193,4.919314
1772268125971,-2.508875,-178.464745,-140.927035,-0.026938
1772268125975,4.692112,-300.909253,-261.234218,-2.164061
1772268125979,6.793169,-158.373009,-126.383953,5.811689
1772268125983,7.701489,84.391346,97.450726,14.626838
1772268125987,5.590658,136.822242,141.466328,15.454460
1772268125990,2.328476,97.486867,90.657416,7.175704
1772268125994,-1.701767,116.944223,91.906203,0.292709
1772268125998,-2.733405,97.456749,66.902842,-2.368947
1772268126002,2.955092,-32.181010,-52.938616,-7.205214
1772268126006,10.608115,-138.901366,-139.506617,-7.082766
1772268126010,17.729650,-79.407341,-56.107023,7.254462
1772268126014,19.642412,-2.677897,42.634443,25.736859
1772268126018,20.727176,-185.293009,-132.230138,25.319026
1772268126022,26.067095,-466.703395,-441.713887,1.282440
1772268126026,23.405481,-439.691410,-441.111478,-17.015302
1772268126029,11.226914,-68.977870,-46.177949,-3.808129
1772268126033,8.664998,-154.651270,-164.228900,-2.714956
1772268126037,5.015954,-36.293492,-60.337318,0.899465
1772268126041,3.709351,120.471059,77.114765,4.368849
1772268126045,4.286422,121.195246,89.167623,8.345184
1772268126049,10.091892,-41.838359,-51.076904,9.514530
1772268126053,16.357559,-202.510446,-220.037321,1.497883
1772268126057,15.959918,-268.832556,-306.939674,-9.013233
1772268126061,13.502540,-244.739056,-262.539186,-9.168247
1772268126065,5.974760,-169.717317,-129.315101,4.010871
1772268126069,-2.241270,-127.676727,-74.571303,16.129485
1772268126072,0.110562,-233.096338,-249.577413,8.298191
1772268126076,5.689890,-360.247068,-449.945051,-14.437896
1772268126033,8.664998,-154.651270,-164.228900,-2.714956
1772268126037,5.015954,-36.293492,-60.337318,0.899465
1772268126041,3.709351,120.471059,77.114765,4.368849
1772268126045,4.286422,121.195246,89.167623,8.345184
1772268126049,10.091892,-41.838359,-51.076904,9.514530
1772268126053,16.357559,-202.510446,-220.037321,1.497883
1772268126057,15.959918,-268.832556,-306.939674,-9.013233
1772268126061,13.502540,-244.739056,-262.539186,-9.168247
1772268126065,5.974760,-169.717317,-129.315101,4.010871
1772268126069,-2.241270,-127.676727,-74.571303,16.129485
1772268126072,0.110562,-233.096338,-249.577413,8.298191
1772268126076,5.689890,-360.247068,-449.945051,-14.437896
1772268126080,-1.087656,-149.405391,-167.215661,5.098294
1772268126084,-3.401064,-147.845624,-168.582040,0.934319
1772268126088,-6.811239,-65.110348,-101.218148,-3.508113
1772268126092,-9.144971,-23.771936,-66.360387,-10.617330
1772268126096,-14.373291,-30.462215,-51.185797,-11.693904
1772268126100,-14.596407,7.371210,14.757605,-4.555638
1772268126104,-4.987260,-4.353170,5.990276,0.872582
1772268126108,7.110882,-226.888109,-233.060598,-5.939568
1772268126112,13.583100,-393.149063,-414.834873,-19.710524
1772268126115,8.147764,-208.609274,-207.923906,-14.354104
1772268126119,-1.461565,119.041761,173.735320,12.927238
1772268126123,-5.335748,252.180677,295.543436,26.931972
1772268126080,-1.087656,-149.405391,-167.215661,5.098294
1772268126084,-3.401064,-147.845624,-168.582040,0.934319
1772268126088,-6.811239,-65.110348,-101.218148,-3.508113
1772268126092,-9.144971,-23.771936,-66.360387,-10.617330
1772268126096,-14.373291,-30.462215,-51.185797,-11.693904
1772268126100,-14.596407,7.371210,14.757605,-4.555638
1772268126104,-4.987260,-4.353170,5.990276,0.872582
1772268126108,7.110882,-226.888109,-233.060598,-5.939568
1772268126112,13.583100,-393.149063,-414.834873,-19.710524
1772268126115,8.147764,-208.609274,-207.923906,-14.354104
1772268126119,-1.461565,119.041761,173.735320,12.927238
1772268126123,-5.335748,252.180677,295.543436,26.931972
1772268126174,9.301773,167.431596,134.172031,-6.034055
1772268126178,7.199301,181.524647,160.907895,-7.193174
1772268126182,1.464050,127.928147,129.414977,-9.156802
1772268126186,-10.918386,117.523157,127.237217,-12.937841
1772268126190,-13.112278,156.459997,142.976722,-15.027365
1772268126194,-1.097649,73.218677,35.836913,-13.325461
1772268126197,8.955491,-164.427218,-179.977310,-10.557186
1772268126201,13.040240,-270.495642,-236.959411,-4.992718
1772268126205,9.833836,-88.854449,-29.817342,11.197789
1772268126209,5.288166,77.089786,115.109820,23.948781
1772268126213,7.085717,-106.019406,-113.232090,10.264348
1772268126217,13.363903,-384.303121,-432.912443,-19.963550
1772268126174,9.301773,167.431596,134.172031,-6.034055
1772268126178,7.199301,181.524647,160.907895,-7.193174
1772268126182,1.464050,127.928147,129.414977,-9.156802
1772268126186,-10.918386,117.523157,127.237217,-12.937841
1772268126190,-13.112278,156.459997,142.976722,-15.027365
1772268126194,-1.097649,73.218677,35.836913,-13.325461
1772268126197,8.955491,-164.427218,-179.977310,-10.557186
1772268126201,13.040240,-270.495642,-236.959411,-4.992718
1772268126205,9.833836,-88.854449,-29.817342,11.197789
1772268126209,5.288166,77.089786,115.109820,23.948781
1772268126213,7.085717,-106.019406,-113.232090,10.264348
1772268126217,13.363903,-384.303121,-432.912443,-19.963550
1772268126174,9.301773,167.431596,134.172031,-6.034055
1772268126178,7.199301,181.524647,160.907895,-7.193174
1772268126182,1.464050,127.928147,129.414977,-9.156802
1772268126186,-10.918386,117.523157,127.237217,-12.937841
1772268126190,-13.112278,156.459997,142.976722,-15.027365
1772268126194,-1.097649,73.218677,35.836913,-13.325461
1772268126197,8.955491,-164.427218,-179.977310,-10.557186
1772268126201,13.040240,-270.495642,-236.959411,-4.992718
1772268126205,9.833836,-88.854449,-29.817342,11.197789
1772268126209,5.288166,77.089786,115.109820,23.948781
1772268126213,7.085717,-106.019406,-113.232090,10.264348
1772268126217,13.363903,-384.303121,-432.912443,-19.963550
1772268126174,9.301773,167.431596,134.172031,-6.034055
1772268126178,7.199301,181.524647,160.907895,-7.193174
1772268126182,1.464050,127.928147,129.414977,-9.156802
1772268126186,-10.918386,117.523157,127.237217,-12.937841
1772268126190,-13.112278,156.459997,142.976722,-15.027365
1772268126194,-1.097649,73.218677,35.836913,-13.325461
1772268126197,8.955491,-164.427218,-179.977310,-10.557186
1772268126201,13.040240,-270.495642,-236.959411,-4.992718
1772268126205,9.833836,-88.854449,-29.817342,11.197789
1772268126209,5.288166,77.089786,115.109820,23.948781
1772268126213,7.085717,-106.019406,-113.232090,10.264348
1772268126217,13.363903,-384.303121,-432.912443,-19.963550
1772268126268,-4.794881,211.542265,203.596554,-0.966607
1772268126272,-7.010613,215.641900,198.513189,-2.076739
1772268126276,-9.906145,174.963245,168.477949,-2.897926
1772268126279,-11.368655,209.887275,201.366331,-2.682731
1772268126283,-11.490463,244.447138,224.704642,-3.504104
1772268126287,-11.860167,193.402171,187.182077,-2.842789
1772268126291,-10.665003,157.775523,197.929715,3.386579
1772268126295,-12.526633,217.711942,298.069126,16.333054
1772268126299,-11.707453,209.841362,285.058439,22.223340
1772268126303,-7.689554,4.615386,46.064848,5.183797
1772268126307,-11.771853,-86.865705,-68.159471,-21.850452
1772268126311,-20.060740,208.842825,245.525398,-22.869933
1772268126268,-4.794881,211.542265,203.596554,-0.966607
1772268126272,-7.010613,215.641900,198.513189,-2.076739
1772268126276,-9.906145,174.963245,168.477949,-2.897926
1772268126279,-11.368655,209.887275,201.366331,-2.682731
1772268126283,-11.490463,244.447138,224.704642,-3.504104
1772268126287,-11.860167,193.402171,187.182077,-2.842789
1772268126291,-10.665003,157.775523,197.929715,3.386579
1772268126295,-12.526633,217.711942,298.069126,16.333054
1772268126299,-11.707453,209.841362,285.058439,22.223340
1772268126303,-7.689554,4.615386,46.064848,5.183797
1772268126307,-11.771853,-86.865705,-68.159471,-21.850452
1772268126311,-20.060740,208.842825,245.525398,-22.869933
1772268126221,7.228141,1.967584,-33.845921,-0.442795
1772268126225,7.103281,35.685353,-15.140064,3.214970
1772268126229,8.884291,-50.619400,-76.033361,6.181927
1772268126233,11.521827,-42.492099,-70.708183,4.473312
1772268126236,8.401577,103.846114,57.357852,7.816812
1772268126240,7.776215,196.883441,164.896643,16.217730
1772268126244,11.278101,48.676697,57.744508,16.943530
1772268126248,12.543080,-222.237691,-202.987184,0.241734
1772268126252,10.090317,-289.020324,-297.572899,-19.389944
1772268126256,1.374087,-79.947613,-73.946241,-14.483720
1772268126260,-7.127771,222.476623,284.197663,11.638319
1772268126264,-8.056954,335.592688,398.539185,24.987907
1772268126221,7.228141,1.967584,-33.845921,-0.442795
1772268126225,7.103281,35.685353,-15.140064,3.214970
1772268126229,8.884291,-50.619400,-76.033361,6.181927
1772268126233,11.521827,-42.492099,-70.708183,4.473312
1772268126236,8.401577,103.846114,57.357852,7.816812
1772268126240,7.776215,196.883441,164.896643,16.217730
1772268126244,11.278101,48.676697,57.744508,16.943530
1772268126248,12.543080,-222.237691,-202.987184,0.241734
1772268126252,10.090317,-289.020324,-297.572899,-19.389944
1772268126256,1.374087,-79.947613,-73.946241,-14.483720
1772268126260,-7.127771,222.476623,284.197663,11.638319
1772268126264,-8.056954,335.592688,398.539185,24.987907
1772268126268,-4.794881,211.542265,203.596554,-0.966607
1772268126272,-7.010613,215.641900,198.513189,-2.076739
1772268126276,-9.906145,174.963245,168.477949,-2.897926
1772268126279,-11.368655,209.887275,201.366331,-2.682731
1772268126283,-11.490463,244.447138,224.704642,-3.504104
1772268126287,-11.860167,193.402171,187.182077,-2.842789
1772268126291,-10.665003,157.775523,197.929715,3.386579
1772268126295,-12.526633,217.711942,298.069126,16.333054
1772268126299,-11.707453,209.841362,285.058439,22.223340
1772268126303,-7.689554,4.615386,46.064848,5.183797
1772268126307,-11.771853,-86.865705,-68.159471,-21.850452
1772268126311,-20.060740,208.842825,245.525398,-22.869933
1772268126268,-4.794881,211.542265,203.596554,-0.966607
1772268126272,-7.010613,215.641900,198.513189,-2.076739
1772268126276,-9.906145,174.963245,168.477949,-2.897926
1772268126279,-11.368655,209.887275,201.366331,-2.682731
1772268126283,-11.490463,244.447138,224.704642,-3.504104
1772268126287,-11.860167,193.402171,187.182077,-2.842789
1772268126291,-10.665003,157.775523,197.929715,3.386579
1772268126295,-12.526633,217.711942,298.069126,16.333054
1772268126299,-11.707453,209.841362,285.058439,22.223340
1772268126303,-7.689554,4.615386,46.064848,5.183797
1772268126307,-11.771853,-86.865705,-68.159471,-21.850452
1772268126311,-20.060740,208.842825,245.525398,-22.869933
1772268126408,-0.824944,215.654617,236.549917,18.389631
1772268126412,-0.433432,222.144198,229.383643,14.999570
1772268126416,-3.254008,285.115910,276.976231,11.531573
1772268126420,-3.798561,243.654122,240.412559,6.057996
1772268126424,-1.074206,69.874052,75.809238,-9.113852
1772268126428,-1.921878,-51.277498,-42.114130,-26.196958
1772268126432,-7.245034,32.887451,55.449630,-27.710741
1772268126436,-11.537308,136.087190,193.466562,-9.595480
1772268126440,-5.800720,26.210997,95.264641,3.366090
1772268126444,2.600061,-176.726556,-161.870811,-9.079828
1772268126447,2.372251,-242.580803,-284.414910,-28.797087
1772268126451,-3.717809,-23.264416,-46.805056,-24.011284
1772268126408,-0.824944,215.654617,236.549917,18.389631
1772268126412,-0.433432,222.144198,229.383643,14.999570
1772268126416,-3.254008,285.115910,276.976231,11.531573
1772268126420,-3.798561,243.654122,240.412559,6.057996
1772268126424,-1.074206,69.874052,75.809238,-9.113852
1772268126428,-1.921878,-51.277498,-42.114130,-26.196958
1772268126432,-7.245034,32.887451,55.449630,-27.710741
1772268126436,-11.537308,136.087190,193.466562,-9.595480
1772268126440,-5.800720,26.210997,95.264641,3.366090
1772268126444,2.600061,-176.726556,-161.870811,-9.079828
1772268126447,2.372251,-242.580803,-284.414910,-28.797087
1772268126451,-3.717809,-23.264416,-46.805056,-24.011284
1772268126408,-0.824944,215.654617,236.549917,18.389631
1772268126412,-0.433432,222.144198,229.383643,14.999570
1772268126416,-3.254008,285.115910,276.976231,11.531573
1772268126420,-3.798561,243.654122,240.412559,6.057996
1772268126424,-1.074206,69.874052,75.809238,-9.113852
1772268126428,-1.921878,-51.277498,-42.114130,-26.196958
1772268126432,-7.245034,32.887451,55.449630,-27.710741
1772268126436,-11.537308,136.087190,193.466562,-9.595480
1772268126440,-5.800720,26.210997,95.264641,3.366090
1772268126444,2.600061,-176.726556,-161.870811,-9.079828
1772268126447,2.372251,-242.580803,-284.414910,-28.797087
1772268126451,-3.717809,-23.264416,-46.805056,-24.011284
1772268126408,-0.824944,215.654617,236.549917,18.389631
1772268126412,-0.433432,222.144198,229.383643,14.999570
1772268126416,-3.254008,285.115910,276.976231,11.531573
1772268126420,-3.798561,243.654122,240.412559,6.057996
1772268126424,-1.074206,69.874052,75.809238,-9.113852
1772268126428,-1.921878,-51.277498,-42.114130,-26.196958
1772268126432,-7.245034,32.887451,55.449630,-27.710741
1772268126436,-11.537308,136.087190,193.466562,-9.595480
1772268126440,-5.800720,26.210997,95.264641,3.366090
1772268126444,2.600061,-176.726556,-161.870811,-9.079828
1772268126447,2.372251,-242.580803,-284.414910,-28.797087
1772268126451,-3.717809,-23.264416,-46.805056,-24.011284
1772268126455,-3.168006,-14.330850,-30.450745,-12.516448
1772268126459,-4.749667,96.302995,70.958882,-13.260251
1772268126463,-6.365956,217.803061,175.564451,-11.804729
1772268126467,-7.926037,186.370258,153.964593,-6.924964
1772268126471,-1.972621,65.755211,54.828484,-1.168940
1772268126475,6.909212,-67.473513,-82.090468,0.400953
1772268126479,10.519444,-216.608339,-248.772458,-5.232366
1772268126483,6.334559,-290.341700,-311.027569,-10.390446
1772268126486,-5.770259,-174.700955,-157.218683,-5.006939
1772268126490,-10.680164,-5.900352,23.818344,4.778059
1772268126494,-3.235853,-82.302241,-94.945259,1.360980
1772268126498,5.772755,-310.501884,-401.145193,-23.658469
1772268126455,-3.168006,-14.330850,-30.450745,-12.516448
1772268126459,-4.749667,96.302995,70.958882,-13.260251
1772268126463,-6.365956,217.803061,175.564451,-11.804729
1772268126467,-7.926037,186.370258,153.964593,-6.924964
1772268126471,-1.972621,65.755211,54.828484,-1.168940
1772268126475,6.909212,-67.473513,-82.090468,0.400953
1772268126479,10.519444,-216.608339,-248.772458,-5.232366
1772268126483,6.334559,-290.341700,-311.027569,-10.390446
1772268126486,-5.770259,-174.700955,-157.218683,-5.006939
1772268126490,-10.680164,-5.900352,23.818344,4.778059
1772268126494,-3.235853,-82.302241,-94.945259,1.360980
1772268126498,5.772755,-310.501884,-401.145193,-23.658469
1772268126502,3.105208,-117.954316,-167.096209,-14.789974
1772268126506,8.423763,-102.334111,-164.918428,-11.489824
1772268126510,12.854258,-102.117785,-170.408043,-6.793447
1772268126514,10.960107,-162.463074,-226.707713,-11.305410
1772268126518,1.319162,-159.528604,-213.519143,-17.194985
1772268126522,-3.950177,-96.634054,-131.908586,-15.855259
1772268126526,-1.869164,-197.611311,-207.930693,-10.447240
1772268126529,4.598418,-450.437299,-467.394591,-14.133264
1772268126533,7.931610,-523.745046,-591.185490,-26.155641
1772268126537,1.871297,-336.684644,-416.493324,-24.408261
1772268126541,-6.661940,-94.043921,-112.848700,-2.070022
1772268126545,-10.936320,38.526373,47.357711,16.488291
1772268126502,3.105208,-117.954316,-167.096209,-14.789974
1772268126506,8.423763,-102.334111,-164.918428,-11.489824
1772268126510,12.854258,-102.117785,-170.408043,-6.793447
1772268126514,10.960107,-162.463074,-226.707713,-11.305410
1772268126518,1.319162,-159.528604,-213.519143,-17.194985
1772268126522,-3.950177,-96.634054,-131.908586,-15.855259
1772268126526,-1.869164,-197.611311,-207.930693,-10.447240
1772268126529,4.598418,-450.437299,-467.394591,-14.133264
1772268126533,7.931610,-523.745046,-591.185490,-26.155641
1772268126537,1.871297,-336.684644,-416.493324,-24.408261
1772268126541,-6.661940,-94.043921,-112.848700,-2.070022
1772268126545,-10.936320,38.526373,47.357711,16.488291
1772268126596,-5.923937,-208.486575,-278.690230,-18.692110
1772268126600,-4.620066,-153.906428,-210.856524,-10.362792
1772268126604,-0.250890,-174.821327,-205.464753,-1.742778
1772268126608,4.767897,-62.929447,-89.191095,8.286548
1772268126611,12.325085,117.784575,75.802323,18.610719
1772268126615,18.732710,110.315424,61.053998,24.678035
1772268126619,20.541738,-112.636221,-143.362783,22.604446
1772268126623,9.414247,-225.079674,-223.349975,14.843649
1772268126627,-15.486927,-20.184615,12.575194,12.652534
1772268126631,-31.850954,239.059347,287.944964,21.543311
1772268126635,-30.829406,234.504500,257.011037,26.399222
1772268126639,-22.296415,39.973928,-0.335138,6.450520
1772268126596,-5.923937,-208.486575,-278.690230,-18.692110
1772268126600,-4.620066,-153.906428,-210.856524,-10.362792
1772268126604,-0.250890,-174.821327,-205.464753,-1.742778
1772268126608,4.767897,-62.929447,-89.191095,8.286548
1772268126611,12.325085,117.784575,75.802323,18.610719
1772268126615,18.732710,110.315424,61.053998,24.678035
1772268126619,20.541738,-112.636221,-143.362783,22.604446
1772268126623,9.414247,-225.079674,-223.349975,14.843649
1772268126627,-15.486927,-20.184615,12.575194,12.652534
1772268126631,-31.850954,239.059347,287.944964,21.543311
1772268126635,-30.829406,234.504500,257.011037,26.399222
1772268126639,-22.296415,39.973928,-0.335138,6.450520
1772268126596,-5.923937,-208.486575,-278.690230,-18.692110
1772268126600,-4.620066,-153.906428,-210.856524,-10.362792
1772268126604,-0.250890,-174.821327,-205.464753,-1.742778
1772268126608,4.767897,-62.929447,-89.191095,8.286548
1772268126611,12.325085,117.784575,75.802323,18.610719
1772268126615,18.732710,110.315424,61.053998,24.678035
1772268126619,20.541738,-112.636221,-143.362783,22.604446
1772268126623,9.414247,-225.079674,-223.349975,14.843649
1772268126627,-15.486927,-20.184615,12.575194,12.652534
1772268126631,-31.850954,239.059347,287.944964,21.543311
1772268126635,-30.829406,234.504500,257.011037,26.399222
1772268126639,-22.296415,39.973928,-0.335138,6.450520
1772268126596,-5.923937,-208.486575,-278.690230,-18.692110
1772268126600,-4.620066,-153.906428,-210.856524,-10.362792
1772268126604,-0.250890,-174.821327,-205.464753,-1.742778
1772268126608,4.767897,-62.929447,-89.191095,8.286548
1772268126611,12.325085,117.784575,75.802323,18.610719
1772268126615,18.732710,110.315424,61.053998,24.678035
1772268126619,20.541738,-112.636221,-143.362783,22.604446
1772268126623,9.414247,-225.079674,-223.349975,14.843649
1772268126627,-15.486927,-20.184615,12.575194,12.652534
1772268126631,-31.850954,239.059347,287.944964,21.543311
1772268126635,-30.829406,234.504500,257.011037,26.399222
1772268126639,-22.296415,39.973928,-0.335138,6.450520
1772268126596,-5.923937,-208.486575,-278.690230,-18.692110
1772268126600,-4.620066,-153.906428,-210.856524,-10.362792
1772268126604,-0.250890,-174.821327,-205.464753,-1.742778
1772268126608,4.767897,-62.929447,-89.191095,8.286548
1772268126611,12.325085,117.784575,75.802323,18.610719
1772268126615,18.732710,110.315424,61.053998,24.678035
1772268126619,20.541738,-112.636221,-143.362783,22.604446
1772268126623,9.414247,-225.079674,-223.349975,14.843649
1772268126627,-15.486927,-20.184615,12.575194,12.652534
1772268126631,-31.850954,239.059347,287.944964,21.543311
1772268126635,-30.829406,234.504500,257.011037,26.399222
1772268126639,-22.296415,39.973928,-0.335138,6.450520
1772268126596,-5.923937,-208.486575,-278.690230,-18.692110
1772268126600,-4.620066,-153.906428,-210.856524,-10.362792
1772268126604,-0.250890,-174.821327,-205.464753,-1.742778
1772268126608,4.767897,-62.929447,-89.191095,8.286548
1772268126611,12.325085,117.784575,75.802323,18.610719
1772268126615,18.732710,110.315424,61.053998,24.678035
1772268126619,20.541738,-112.636221,-143.362783,22.604446
1772268126623,9.414247,-225.079674,-223.349975,14.843649
1772268126627,-15.486927,-20.184615,12.575194,12.652534
1772268126631,-31.850954,239.059347,287.944964,21.543311
1772268126635,-30.829406,234.504500,257.011037,26.399222
1772268126639,-22.296415,39.973928,-0.335138,6.450520
1772268126643,-25.392711,290.242981,290.133358,11.344442
1772268126647,-24.385433,205.326786,229.887785,11.245790
1772268126651,-20.449194,50.275651,101.386684,9.719996
1772268126654,-18.858457,36.424841,73.402619,3.945672
1772268126658,-23.195733,171.750750,193.064319,2.479769
1772268126662,-27.430827,356.375686,394.303844,12.906499
1772268126666,-30.977766,376.694023,445.021119,28.266692
1772268126670,-26.182855,184.296903,245.098286,27.802376
1772268126674,-16.446203,-6.706665,13.857191,10.886779
1772268126678,-13.526169,-24.896902,4.959408,3.251155
1772268126682,-13.741312,251.013376,334.923886,20.851295
1772268126686,-12.897885,601.443849,691.283894,46.147139
1772268126643,-25.392711,290.242981,290.133358,11.344442
1772268126647,-24.385433,205.326786,229.887785,11.245790
1772268126651,-20.449194,50.275651,101.386684,9.719996
1772268126654,-18.858457,36.424841,73.402619,3.945672
1772268126658,-23.195733,171.750750,193.064319,2.479769
1772268126662,-27.430827,356.375686,394.303844,12.906499
1772268126666,-30.977766,376.694023,445.021119,28.266692
1772268126670,-26.182855,184.296903,245.098286,27.802376
1772268126674,-16.446203,-6.706665,13.857191,10.886779
1772268126678,-13.526169,-24.896902,4.959408,3.251155
1772268126682,-13.741312,251.013376,334.923886,20.851295
1772268126686,-12.897885,601.443849,691.283894,46.147139
1772268126690,-3.513701,447.845000,449.289976,19.663743
1772268126693,-0.830993,429.376024,435.189684,19.419108
1772268126697,0.083389,395.927832,410.232373,21.901643
1772268126701,2.155351,397.029852,404.126290,21.689906
1772268126705,3.444712,299.977844,296.565929,15.293723
1772268126709,7.821086,131.087255,125.635635,6.165371
1772268126713,14.237304,77.964360,90.588756,5.546364
1772268126717,13.680271,147.853087,202.316629,20.461651
1772268126721,12.537963,89.345882,170.967857,30.272632
1772268126725,14.070499,-194.248079,-146.165828,13.364742
1772268126729,14.757177,-336.508371,-364.653674,-17.867201
1772268126733,11.592759,-65.775683,-116.844998,-28.087849
1772268126690,-3.513701,447.845000,449.289976,19.663743
1772268126693,-0.830993,429.376024,435.189684,19.419108
1772268126697,0.083389,395.927832,410.232373,21.901643
1772268126701,2.155351,397.029852,404.126290,21.689906
1772268126705,3.444712,299.977844,296.565929,15.293723
1772268126709,7.821086,131.087255,125.635635,6.165371
1772268126713,14.237304,77.964360,90.588756,5.546364
1772268126717,13.680271,147.853087,202.316629,20.461651
1772268126721,12.537963,89.345882,170.967857,30.272632
1772268126725,14.070499,-194.248079,-146.165828,13.364742
1772268126729,14.757177,-336.508371,-364.653674,-17.867201
1772268126733,11.592759,-65.775683,-116.844998,-28.087849
1772268126690,-3.513701,447.845000,449.289976,19.663743
1772268126693,-0.830993,429.376024,435.189684,19.419108
1772268126697,0.083389,395.927832,410.232373,21.901643
1772268126701,2.155351,397.029852,404.126290,21.689906
1772268126705,3.444712,299.977844,296.565929,15.293723
1772268126709,7.821086,131.087255,125.635635,6.165371
1772268126713,14.237304,77.964360,90.588756,5.546364
1772268126717,13.680271,147.853087,202.316629,20.461651
1772268126721,12.537963,89.345882,170.967857,30.272632
1772268126725,14.070499,-194.248079,-146.165828,13.364742
1772268126729,14.757177,-336.508371,-364.653674,-17.867201
1772268126733,11.592759,-65.775683,-116.844998,-28.087849
1772268126690,-3.513701,447.845000,449.289976,19.663743
1772268126693,-0.830993,429.376024,435.189684,19.419108
1772268126697,0.083389,395.927832,410.232373,21.901643
1772268126701,2.155351,397.029852,404.126290,21.689906
1772268126705,3.444712,299.977844,296.565929,15.293723
1772268126709,7.821086,131.087255,125.635635,6.165371
1772268126713,14.237304,77.964360,90.588756,5.546364
1772268126717,13.680271,147.853087,202.316629,20.461651
1772268126721,12.537963,89.345882,170.967857,30.272632
1772268126725,14.070499,-194.248079,-146.165828,13.364742
1772268126729,14.757177,-336.508371,-364.653674,-17.867201
1772268126733,11.592759,-65.775683,-116.844998,-28.087849
1772268126830,1.733111,0.420259,-3.829796,-13.950208
1772268126834,8.786881,58.896610,45.976172,-4.903742
1772268126838,16.150181,179.680836,152.837105,5.743191
1772268126842,19.839678,173.520743,152.136101,12.587916
1772268126846,17.362245,26.726231,14.237842,12.474375
1772268126850,12.942326,-101.990603,-114.424004,5.460659
1772268126854,8.359500,-101.475779,-95.855257,1.419680
1772268126858,2.317232,-19.012085,35.078259,9.034826
1772268126861,0.611934,56.361476,125.545937,15.430025
1772268126865,2.566791,-12.173849,-0.317500,5.460115
1772268126869,6.158429,-216.593542,-267.432140,-15.147789
1772268126873,8.267508,-161.241830,-206.129758,-16.507098
1772268126830,1.733111,0.420259,-3.829796,-13.950208
1772268126834,8.786881,58.896610,45.976172,-4.903742
1772268126838,16.150181,179.680836,152.837105,5.743191
1772268126842,19.839678,173.520743,152.136101,12.587916
1772268126846,17.362245,26.726231,14.237842,12.474375
1772268126850,12.942326,-101.990603,-114.424004,5.460659
1772268126854,8.359500,-101.475779,-95.855257,1.419680
1772268126858,2.317232,-19.012085,35.078259,9.034826
1772268126861,0.611934,56.361476,125.545937,15.430025
1772268126865,2.566791,-12.173849,-0.317500,5.460115
1772268126869,6.158429,-216.593542,-267.432140,-15.147789
1772268126873,8.267508,-161.241830,-206.129758,-16.507098
1772268126877,8.806655,-15.470327,-24.551236,12.839318
1772268126881,8.350080,56.773690,48.204512,15.617816
1772268126885,4.150006,62.874163,57.905394,13.210217
1772268126889,-1.282044,27.848289,34.925418,10.006542
1772268126893,-1.510502,68.001469,78.860579,8.110602
1772268126897,3.111857,44.948882,50.624781,7.284103
1772268126900,9.575554,-157.708818,-156.059021,0.985391
1772268126904,6.390088,-311.661353,-307.257557,-10.351712
1772268126908,-4.195657,-150.689134,-136.371052,-13.313217
1772268126912,-7.259319,122.176271,154.260077,-0.336559
1772268126916,-2.743174,94.145593,125.719569,12.009354
1772268126920,4.731728,-170.478800,-200.784997,-3.795987
1772268126877,8.806655,-15.470327,-24.551236,12.839318
1772268126881,8.350080,56.773690,48.204512,15.617816
1772268126885,4.150006,62.874163,57.905394,13.210217
1772268126889,-1.282044,27.848289,34.925418,10.006542
1772268126893,-1.510502,68.001469,78.860579,8.110602
1772268126897,3.111857,44.948882,50.624781,7.284103
1772268126900,9.575554,-157.708818,-156.059021,0.985391
1772268126904,6.390088,-311.661353,-307.257557,-10.351712
1772268126908,-4.195657,-150.689134,-136.371052,-13.313217
1772268126912,-7.259319,122.176271,154.260077,-0.336559
1772268126916,-2.743174,94.145593,125.719569,12.009354
1772268126920,4.731728,-170.478800,-200.784997,-3.795987
1772268126877,8.806655,-15.470327,-24.551236,12.839318
1772268126881,8.350080,56.773690,48.204512,15.617816
1772268126885,4.150006,62.874163,57.905394,13.210217
1772268126889,-1.282044,27.848289,34.925418,10.006542
1772268126893,-1.510502,68.001469,78.860579,8.110602
1772268126897,3.111857,44.948882,50.624781,7.284103
1772268126900,9.575554,-157.708818,-156.059021,0.985391
1772268126904,6.390088,-311.661353,-307.257557,-10.351712
1772268126908,-4.195657,-150.689134,-136.371052,-13.313217
1772268126912,-7.259319,122.176271,154.260077,-0.336559
1772268126916,-2.743174,94.145593,125.719569,12.009354
1772268126920,4.731728,-170.478800,-200.784997,-3.795987
1772268126877,8.806655,-15.470327,-24.551236,12.839318
1772268126881,8.350080,56.773690,48.204512,15.617816
1772268126885,4.150006,62.874163,57.905394,13.210217
1772268126889,-1.282044,27.848289,34.925418,10.006542
1772268126893,-1.510502,68.001469,78.860579,8.110602
1772268126897,3.111857,44.948882,50.624781,7.284103
1772268126900,9.575554,-157.708818,-156.059021,0.985391
1772268126904,6.390088,-311.661353,-307.257557,-10.351712
1772268126908,-4.195657,-150.689134,-136.371052,-13.313217
1772268126912,-7.259319,122.176271,154.260077,-0.336559
1772268126916,-2.743174,94.145593,125.719569,12.009354
1772268126920,4.731728,-170.478800,-200.784997,-3.795987
1772268127018,-4.952198,37.732192,17.997180,1.108753
1772268127022,-0.258998,102.521308,89.638542,1.753535
1772268127025,4.480428,58.630699,66.054260,0.741979
1772268127029,11.447443,79.635838,88.739402,2.447756
1772268127033,19.161115,194.766519,194.814002,11.718503
1772268127037,20.065844,222.375246,222.401789,19.632357
1772268127041,21.385402,12.999918,21.292839,13.114824
1772268127045,23.788783,-221.739357,-202.793574,0.450065
1772268127049,21.122131,-168.824990,-126.726236,-0.475554
1772268127053,15.807833,71.715910,151.397649,13.416728
1772268127057,11.128477,201.554357,277.463221,24.468367
1772268127061,15.173609,65.976907,66.778926,11.127063
1772268127018,-4.952198,37.732192,17.997180,1.108753
1772268127022,-0.258998,102.521308,89.638542,1.753535
1772268127025,4.480428,58.630699,66.054260,0.741979
1772268127029,11.447443,79.635838,88.739402,2.447756
1772268127033,19.161115,194.766519,194.814002,11.718503
1772268127037,20.065844,222.375246,222.401789,19.632357
1772268127041,21.385402,12.999918,21.292839,13.114824
1772268127045,23.788783,-221.739357,-202.793574,0.450065
1772268127049,21.122131,-168.824990,-126.726236,-0.475554
1772268127053,15.807833,71.715910,151.397649,13.416728
1772268127057,11.128477,201.554357,277.463221,24.468367
1772268127061,15.173609,65.976907,66.778926,11.127063
1772268127018,-4.952198,37.732192,17.997180,1.108753
1772268127022,-0.258998,102.521308,89.638542,1.753535
1772268127025,4.480428,58.630699,66.054260,0.741979
1772268127029,11.447443,79.635838,88.739402,2.447756
1772268127033,19.161115,194.766519,194.814002,11.718503
1772268127037,20.065844,222.375246,222.401789,19.632357
1772268127041,21.385402,12.999918,21.292839,13.114824
1772268127045,23.788783,-221.739357,-202.793574,0.450065
1772268127049,21.122131,-168.824990,-126.726236,-0.475554
1772268127053,15.807833,71.715910,151.397649,13.416728
1772268127057,11.128477,201.554357,277.463221,24.468367
1772268127061,15.173609,65.976907,66.778926,11.127063
1772268127018,-4.952198,37.732192,17.997180,1.108753
1772268127022,-0.258998,102.521308,89.638542,1.753535
1772268127025,4.480428,58.630699,66.054260,0.741979
1772268127029,11.447443,79.635838,88.739402,2.447756
1772268127033,19.161115,194.766519,194.814002,11.718503
1772268127037,20.065844,222.375246,222.401789,19.632357
1772268127041,21.385402,12.999918,21.292839,13.114824
1772268127045,23.788783,-221.739357,-202.793574,0.450065
1772268127049,21.122131,-168.824990,-126.726236,-0.475554
1772268127053,15.807833,71.715910,151.397649,13.416728
1772268127057,11.128477,201.554357,277.463221,24.468367
1772268127061,15.173609,65.976907,66.778926,11.127063
